MSG Master    CELL:    5.88641   5.88641  23.13661   90.0000   90.0000  120.0000   SPGR: P 63/m m c             TEMP:    610.05
  2   1280     2.52000     0.00000    -0.09344     0.00000     0.00000    0
    96    96     0     0     2
       0.00000      10.00000
     125.00000     130.00000
 2Theta	Yobs	Ycal	Yobs-Ycal	Backg	Posr	(hkl)	K
      0.7700	    0.00	  793.81	-1910.87	  666.08
      0.8700	    0.00	  792.42	-1910.87	  664.68
      0.9700	   46.00	  791.03	-1910.87	  663.29
      1.0700	   53.00	  789.64	-1910.87	  661.91
      1.1700	   49.00	  788.26	-1910.87	  660.53
      1.2700	   54.00	  786.89	-1910.87	  659.15
      1.3700	   45.00	  785.52	-1910.87	  657.79
      1.4700	  114.00	  784.16	-1910.87	  656.42
      1.5700	  268.00	  782.80	-1910.87	  655.06
      1.6700	  436.00	  781.44	-1910.87	  653.71
      1.7700	  572.00	  780.09	-1910.87	  652.36
      1.8700	  661.00	  778.75	-1910.87	  651.01
      1.9700	  750.00	  777.41	-1910.87	  649.67
      2.0700	  774.00	  776.07	-1910.87	  648.34
      2.1700	  753.00	  774.74	-1910.87	  647.01
      2.2700	  793.00	  773.42	-1910.87	  645.68
      2.3700	  718.00	  772.09	-1910.87	  644.36
      2.4700	  726.00	  770.78	-1910.87	  643.04
      2.5700	  671.00	  769.47	-1910.87	  641.73
      2.6700	  691.00	  768.16	-1910.87	  640.43
      2.7700	  673.00	  766.86	-1910.87	  639.13
      2.8700	  676.00	  765.56	-1910.87	  637.83
      2.9700	  587.00	  764.27	-1910.87	  636.54
      3.0700	  571.00	  762.99	-1910.87	  635.25
      3.1700	  643.00	  761.70	-1910.87	  633.97
      3.2700	  784.00	  760.43	-1910.87	  632.69
      3.3700	  918.00	  759.15	-1910.87	  631.42
      3.4700	 1061.00	  757.89	-1910.87	  630.15
      3.5700	 1235.00	  756.62	-1910.87	  628.89
      3.6700	 1314.00	  755.37	-1910.87	  627.63
      3.7700	 1387.00	  754.11	-1910.87	  626.38
      3.8700	 1471.00	  752.87	-1910.87	  625.13
      3.9700	 1669.00	  751.62	-1910.87	  623.89
      4.0700	 1604.00	  750.38	-1910.87	  622.65
      4.1700	 1718.00	  749.15	-1910.87	  621.41
      4.2700	 1740.00	  747.92	-1910.87	  620.18
      4.3700	 1619.00	  746.70	-1910.87	  618.96
      4.4700	 1641.00	  745.48	-1910.87	  617.74
      4.5700	 1498.00	  744.26	-1910.87	  616.53
      4.6700	 1527.00	  743.05	-1910.87	  615.32
      4.7700	 1466.00	  741.85	-1910.87	  614.11
      4.8700	 1394.00	  740.65	-1910.87	  612.91
      4.9700	 1324.00	  739.45	-1910.87	  611.71
      5.0700	 1344.00	  738.26	-1910.87	  610.52
      5.1700	 1286.00	  737.07	-1910.87	  609.34
      5.2700	 1218.00	  735.89	-1910.87	  608.16
      5.3700	 1269.00	  734.71	-1910.87	  606.98
      5.4700	 1176.00	  733.54	-1910.87	  605.81
      5.5700	 1144.00	  732.37	-1910.87	  604.64
      5.6700	 1129.00	  731.21	-1910.87	  603.48
      5.7700	 1154.00	  730.05	-1910.87	  602.32
      5.8700	 1062.00	  728.90	-1910.87	  601.16
      5.9700	 1053.00	  727.75	-1910.87	  600.02
      6.0700	 1089.00	  726.61	-1910.87	  598.87
      6.1700	 1040.00	  725.47	-1910.87	  597.73
      6.2700	 1006.00	  724.33	-1910.87	  596.60
      6.3700	 1030.00	  723.20	-1910.87	  595.47
      6.4700	  966.00	  722.08	-1910.87	  594.34
      6.5700	  947.00	  720.96	-1910.87	  593.22
      6.6700	  882.00	  719.84	-1910.87	  592.11
      6.7700	  906.00	  718.73	-1910.87	  591.00
      6.8700	  879.00	  717.62	-1910.87	  589.89
      6.9700	  894.00	  716.52	-1910.87	  588.79
      7.0700	  846.00	  715.42	-1910.87	  587.69
      7.1700	  862.00	  714.33	-1910.87	  586.60
      7.2700	  859.00	  713.24	-1910.87	  585.51
      7.3700	  858.00	  712.16	-1910.87	  584.43
      7.4700	  855.00	  711.08	-1910.87	  583.35
      7.5700	  838.00	  710.01	-1910.87	  582.27
      7.6700	  799.00	  708.94	-1910.87	  581.20
      7.7700	  826.00	  707.87	-1910.87	  580.14
      7.8700	  825.00	  706.81	-1910.87	  579.08
      7.9700	  766.00	  705.76	-1910.87	  578.02
      8.0700	  757.00	  704.71	-1910.87	  576.97
      8.1700	  795.00	  703.66	-1910.87	  575.92
      8.2700	  789.00	  702.62	-1910.87	  574.88
      8.3700	  742.00	  701.58	-1910.87	  573.84
      8.4700	  749.00	  700.55	-1910.87	  572.81
      8.5700	  719.00	  699.52	-1910.87	  571.78
      8.6700	  750.00	  698.49	-1910.87	  570.76
      8.7700	  760.00	  697.47	-1910.87	  569.74
      8.8700	  768.00	  696.46	-1910.87	  568.72
      8.9700	  784.00	  695.45	-1910.87	  567.71
      9.0700	  751.00	  694.44	-1910.87	  566.71
      9.1700	  692.00	  693.44	-1910.87	  565.71
      9.2700	  759.00	  692.44	-1910.87	  564.71
      9.3700	  679.00	  691.45	-1910.87	  563.72
      9.4700	  749.00	  690.46	-1910.87	  562.73
      9.5700	  763.00	  689.48	-1910.87	  561.75
      9.6700	  703.00	  688.50	-1910.87	  560.77
      9.7700	  701.00	  687.53	-1910.87	  559.79
      9.8700	  724.00	  686.56	-1910.87	  558.82
      9.9700	  721.00	  685.59	-1910.87	  557.86
     10.0700	  695.00	  686.86	-1902.73	  556.90
     10.1700	  727.00	  686.15	-1870.02	  555.94
     10.2700	  710.00	  685.49	-1886.37	  554.99
     10.3700	  660.00	  684.91	-1935.79	  554.04
     10.4700	  676.00	  684.43	-1919.31	  553.10
     10.5700	  703.00	  684.10	-1891.97	  552.16
     10.6700	  685.00	  683.98	-1909.86	  551.22
     10.7700	  752.00	  684.17	-1843.04	  550.29
     10.8700	  657.00	  684.76	-1938.63	  549.37
     10.9700	  735.00	  685.83	-1861.70	  548.44
     11.0700	  639.00	  687.42	-1959.29	  547.53
     11.1700	  691.00	  689.54	-1909.42	  546.62
     11.2700	  695.00	  692.23	-1908.11	  545.71
     11.3700	  735.00	  695.55	-1871.42	  544.80
     11.4700	  659.00	  699.59	-1951.46	  543.90
     11.5700	  737.00	  704.52	-1878.40	  543.01
     11.6700	  706.00	  710.61	-1915.48	  542.12
     11.7700	  715.00	  718.15	-1914.02	  541.23
     11.8700	  722.00	  727.38	-1916.26	  540.35
     11.9700	  770.00	  738.26	-1879.14	  539.47
     12.0700	  831.00	  749.97	-1829.84	  538.60
     12.1700	  804.00	  760.37	-1867.25	  537.73
     12.2700	  849.00	  765.56	-1827.43	  536.86
     12.3700	  780.00	  760.72	-1891.59	  536.00
     12.4700	  769.00	  744.83	-1886.71	  535.15
     12.5700	  727.00	  723.97	-1907.85	  534.29
     12.6700	  705.00	  704.99	-1910.87	  533.45
     12.7700	  690.00	  690.51	-1911.39	  532.60
     12.8700	  672.00	  680.45	-1919.32	  531.76
     12.9700	  670.00	  673.72	-1914.60	  530.93
     13.0700	  638.00	  669.19	-1942.07	  530.10
     13.1700	  646.00	  665.98	-1930.85	  529.27
     13.2700	  623.00	  663.52	-1951.40	  528.45
     13.3700	  652.00	  661.51	-1920.39	  527.63
     13.4700	  664.00	  659.79	-1906.67	  526.81
     13.5700	  667.00	  658.27	-1902.14	  526.00
     13.6700	  659.00	  656.89	-1908.76	  525.20
     13.7700	  641.00	  655.62	-1925.50	  524.40
     13.8700	  631.00	  654.44	-1934.31	  523.60
     13.9700	  666.00	  653.32	-1898.19	  522.81
     14.0700	  647.00	  652.26	-1916.13	  522.02
     14.1700	  652.00	  651.24	-1910.12	  521.23
     14.2700	  637.00	  650.26	-1924.14	  520.45
     14.3700	  615.00	  649.31	-1945.19	  519.67
     14.4700	  646.00	  648.39	-1913.26	  518.90
     14.5700	  604.00	  647.49	-1954.36	  518.13
     14.6700	  602.00	  646.61	-1955.48	  517.37
     14.7700	  643.00	  645.75	-1913.62	  516.61
     14.8700	  625.00	  644.90	-1930.77	  515.85
     14.9700	  580.00	  644.07	-1974.94	  515.10
     15.0700	  654.00	  643.25	-1900.12	  514.35
     15.1700	  658.00	  642.44	-1895.31	  513.61
     15.2700	  696.00	  641.64	-1856.51	  512.87
     15.3700	  618.00	  640.85	-1933.72	  512.13
     15.4700	  666.00	  640.07	-1884.94	  511.40
     15.5700	  634.00	  639.30	-1916.17	  510.67
     15.6700	  602.00	  638.53	-1947.41	  509.95
     15.7700	  655.00	  637.78	-1893.65	  509.23
     15.8700	  628.00	  637.03	-1919.90	  508.51
     15.9700	  585.00	  636.28	-1962.16	  507.80
     16.0700	  641.00	  635.55	-1905.42	  507.09
     16.1700	  608.00	  634.82	-1937.69	  506.39
     16.2700	  673.00	  634.09	-1871.97	  505.69
     16.3700	  618.00	  633.38	-1926.25	  504.99
     16.4700	  610.00	  632.66	-1933.54	  504.30
     16.5700	  680.00	  631.96	-1862.83	  503.61
     16.6700	  611.00	  631.25	-1931.13	  502.93
     16.7700	  626.00	  630.56	-1915.43	  502.25
     16.8700	  618.00	  629.87	-1922.74	  501.57
     16.9700	  595.00	  629.18	-1945.05	  500.90
     17.0700	  650.00	  628.50	-1889.37	  500.23
     17.1700	  610.00	  627.82	-1928.70	  499.57
     17.2700	  616.00	  627.15	-1922.02	  498.91
     17.3700	  619.00	  626.48	-1918.36	  498.25
     17.4700	  641.00	  625.82	-1895.69	  497.60
     17.5700	  639.00	  625.16	-1897.04	  496.95
     17.6700	  671.00	  624.51	-1864.38	  496.30
     17.7700	  633.00	  623.86	-1901.73	  495.66
     17.8700	  604.00	  623.22	-1930.09	  495.02
     17.9700	  637.00	  622.58	-1896.45	  494.39
     18.0700	  584.00	  621.94	-1948.81	  493.76
     18.1700	  603.00	  621.31	-1929.18	  493.13
     18.2700	  612.00	  620.68	-1919.55	  492.51
     18.3700	  637.00	  620.06	-1893.93	  491.89
     18.4700	  645.00	  619.44	-1885.31	  491.28
     18.5700	  618.00	  618.83	-1911.70	  490.67
     18.6700	  642.00	  618.22	-1887.09	  490.06
     18.7700	  627.00	  619.89	-1903.76	  489.45
     18.8700	  575.00	  619.33	-1955.20	  488.85
     18.9700	  606.00	  618.78	-1923.65	  488.26
     19.0700	  607.00	  618.24	-1922.11	  487.67
     19.1700	  637.00	  617.70	-1891.57	  487.08
     19.2700	  644.00	  617.17	-1884.04	  486.49
     19.3700	  634.00	  616.64	-1893.51	  485.91
     19.4700	  659.00	  616.12	-1867.99	  485.33
     19.5700	  621.00	  615.61	-1905.48	  484.76
     19.6700	  581.00	  615.10	-1944.97	  484.19
     19.7700	  604.00	  614.60	-1921.47	  483.62
     19.8700	  629.00	  614.10	-1895.97	  483.06
     19.9700	  607.00	  613.64	-1917.52	  482.50
     20.0700	  548.00	  613.16	-1976.03	  481.94
     20.1700	  599.00	  612.68	-1924.56	  481.39
     20.2700	  593.00	  612.22	-1930.09	  480.84
     20.3700	  601.00	  611.75	-1921.63	  480.30
     20.4700	  662.00	  611.30	-1860.17	  479.75
     20.5700	  605.00	  610.85	-1916.73	  479.22
     20.6700	  568.00	  610.41	-1953.29	  478.68
     20.7700	  560.00	  609.98	-1960.85	  478.15
     20.8700	  576.00	  609.56	-1944.43	  477.62
     20.9700	  578.00	  609.14	-1942.01	  477.10
     21.0700	  628.00	  608.73	-1891.61	  476.58
     21.1700	  595.00	  608.33	-1924.21	  476.06
     21.2700	  606.00	  607.94	-1912.82	  475.55
     21.3700	  586.00	  607.56	-1932.44	  475.04
     21.4700	  602.00	  607.19	-1916.07	  474.53
     21.5700	  633.00	  606.83	-1884.71	  474.03
     21.6700	  602.00	  606.49	-1915.36	  473.53
     21.7700	  572.00	  606.15	-1945.02	  473.03
     21.8700	  595.00	  605.82	-1921.70	  472.54
     21.9700	  578.00	  605.51	-1938.39	  472.05
     22.0700	  634.00	  605.21	-1882.09	  471.57
     22.1700	  649.00	  604.93	-1866.80	  471.08
     22.2700	  615.00	  604.85	-1900.72	  470.61
     22.3700	  611.00	  604.60	-1904.47	  470.13
     22.4700	  647.00	  604.37	-1868.24	  469.66
     22.5700	  589.00	  604.16	-1926.03	  469.19
     22.6700	  646.00	  603.97	-1868.84	  468.72
     22.7700	  559.00	  603.80	-1955.68	  468.26
     22.8700	  601.00	  603.66	-1913.54	  467.80
     22.9700	  578.00	  603.55	-1936.43	  467.35
     23.0700	  628.00	  603.48	-1886.35	  466.90
     23.1700	  586.00	  603.44	-1928.31	  466.45
     23.2700	  638.00	  603.45	-1876.32	  466.00
     23.3700	  610.00	  603.51	-1904.38	  465.56
     23.4700	  616.00	  603.63	-1898.50	  465.12
     23.5700	  605.00	  603.83	-1909.70	  464.68
     23.6700	  599.00	  604.13	-1916.00	  464.25
     23.7700	  647.00	  604.56	-1868.43	  463.82
     23.8700	  628.00	  605.18	-1888.05	  463.40
     23.9700	  630.00	  606.06	-1886.94	  462.97
     24.0700	  588.00	  607.37	-1930.24	  462.56
     24.1700	  620.00	  609.32	-1900.19	  462.14
     24.2700	  601.00	  612.24	-1922.12	  461.73
     24.3700	  602.00	  616.56	-1925.43	  461.32
     24.4700	  633.00	  622.60	-1900.47	  460.91
     24.5700	  623.00	  630.66	-1918.54	  460.51
     24.6700	  684.00	  640.45	-1867.32	  460.11
     24.7700	  683.00	  650.98	-1878.85	  459.71
     24.8700	  711.00	  660.22	-1860.09	  459.31
     24.9700	  695.00	  664.94	-1880.81	  458.92
     25.0700	  679.00	  662.19	-1894.06	  458.54
     25.1700	  695.00	  652.83	-1868.71	  458.15
     25.2700	  663.00	  641.49	-1889.36	  457.77
     25.3700	  650.00	  631.73	-1892.60	  457.39
     25.4700	  623.00	  624.80	-1912.67	  457.02
     25.5700	  599.00	  620.56	-1932.43	  456.64
     25.6700	  619.00	  618.41	-1910.28	  456.27
     25.7700	  660.00	  617.70	-1868.58	  455.91
     25.8700	  679.00	  617.97	-1849.85	  455.54
     25.9700	  591.00	  618.92	-1938.80	  455.18
     26.0700	  607.00	  620.41	-1924.28	  454.83
     26.1700	  639.00	  622.38	-1894.26	  454.47
     26.2700	  660.00	  624.85	-1875.73	  454.12
     26.3700	  599.00	  627.86	-1939.73	  453.77
     26.4700	  649.00	  631.47	-1893.34	  453.43
     26.5700	  601.00	  635.78	-1945.66	  453.08
     26.6700	  670.00	  640.94	-1881.81	  452.74
     26.7700	  665.00	  647.12	-1892.99	  452.41
     26.8700	  620.00	  654.56	-1945.43	  452.07
     26.9700	  633.00	  663.59	-1941.47	  451.74
     27.0700	  662.00	  674.68	-1923.55	  451.42
     27.1700	  695.00	  688.45	-1904.33	  451.09
     27.2700	  731.00	  705.89	-1885.77	  450.77
     27.3700	  730.00	  728.64	-1909.51	  450.45
     27.4700	  691.00	  759.90	-1979.77	  450.13
     27.5700	  765.00	  806.50	-1952.38	  449.82
     27.6700	  810.00	  882.68	-1983.56	  449.51
     27.7700	  880.00	 1015.44	-2046.32	  449.20
     27.8700	  965.00	 1249.54	-2195.41	  448.90
     27.9700	 1290.00	 1646.22	-2267.09	  448.59
     28.0700	 1806.00	 2264.77	-2369.64	  448.29
     28.1700	 2870.00	 3119.42	-2160.29	  448.00
     28.2700	 4367.00	 4111.74	-1655.61	  447.70
     28.3700	 5594.00	 4968.29	-1285.17	  447.41
     28.4700	 6069.00	 5271.62	-1113.50	  447.12
     28.5700	 5061.00	 4783.59	-1633.47	  446.84
     28.6700	 3904.00	 3891.80	-1898.67	  446.56
     28.7700	 2874.00	 3186.25	-2223.13	  446.28
     28.8700	 2653.00	 2913.95	-2171.83	  446.00
     28.9700	 2999.00	 3006.15	-1918.02	  445.72
     29.0700	 3397.00	 3214.90	-1728.77	  445.45
     29.1700	 3391.00	 3232.79	-1752.67	  445.18
     29.2700	 3067.00	 2876.38	-1720.25	  444.92
     29.3700	 2275.00	 2282.55	-1918.42	  444.65
     29.4700	 1537.00	 1711.93	-2085.80	  444.39
     29.5700	 1171.00	 1291.81	-2031.68	  444.13
     29.6700	 1022.00	 1029.80	-1918.68	  443.87
     29.7700	  872.00	  882.60	-1921.47	  443.62
     29.8700	  794.00	  801.84	-1918.72	  443.37
     29.9700	  772.00	  754.43	-1893.30	  443.12
     30.0700	  719.00	  723.24	-1915.11	  442.88
     30.1700	  772.00	  700.79	-1839.66	  442.63
     30.2700	  732.00	  683.94	-1862.82	  442.39
     30.3700	  694.00	  671.33	-1888.21	  442.15
     30.4700	  667.00	  662.47	-1906.34	  441.92
     30.5700	  680.00	  657.48	-1888.35	  441.68
     30.6700	  739.00	  656.93	-1828.80	  441.45
     30.7700	  691.00	  661.42	-1881.29	  441.23
     30.8700	  708.00	  670.73	-1873.61	  441.00
     30.9700	  726.00	  682.93	-1867.81	  440.78
     31.0700	  736.00	  693.70	-1868.57	  440.56
     31.1700	  727.00	  696.56	-1880.44	  440.34
     31.2700	  717.00	  686.54	-1880.41	  440.12
     31.3700	  726.00	  666.69	-1851.57	  439.91
     31.4700	  705.00	  645.38	-1851.25	  439.70
     31.5700	  669.00	  627.92	-1869.79	  439.49
     31.6700	  650.00	  615.60	-1876.48	  439.28
     31.7700	  675.00	  607.65	-1843.52	  439.08
     31.8700	  689.00	  602.65	-1824.52	  438.88
     31.9700	  613.00	  599.39	-1897.26	  438.68
     32.0700	  604.00	  597.10	-1903.98	  438.48
     32.1700	  621.00	  595.40	-1885.28	  438.29
     32.2700	  606.00	  594.11	-1898.98	  438.09
     32.3700	  560.00	  593.14	-1944.02	  437.90
     32.4700	  567.00	  592.47	-1936.35	  437.72
     32.5700	  604.00	  592.09	-1898.96	  437.53
     32.6700	  592.00	  592.03	-1910.90	  437.35
     32.7700	  589.00	  592.26	-1914.13	  437.17
     32.8700	  630.00	  592.86	-1873.73	  436.99
     32.9700	  632.00	  593.90	-1872.77	  436.81
     33.0700	  618.00	  595.49	-1888.37	  436.64
     33.1700	  625.00	  597.84	-1883.71	  436.47
     33.2700	  593.00	  601.28	-1919.16	  436.30
     33.3700	  627.00	  606.51	-1890.38	  436.13
     33.4700	  620.00	  614.84	-1905.71	  435.97
     33.5700	  662.00	  628.69	-1877.56	  435.80
     33.6700	  638.00	  652.01	-1924.88	  435.64
     33.7700	  715.00	  690.15	-1886.02	  435.48
     33.8700	  761.00	  748.41	-1898.29	  435.33
     33.9700	  871.00	  828.46	-1868.33	  435.17
     34.0700	  985.00	  923.32	-1849.19	  435.02
     34.1700	 1139.00	 1013.65	-1785.52	  434.87
     34.2700	 1250.00	 1067.89	-1728.77	  434.72
     34.3700	 1238.00	 1055.42	-1728.30	  434.58
     34.4700	 1064.00	  978.11	-1824.99	  434.43
     34.5700	  874.00	  874.33	-1911.20	  434.29
     34.6700	  752.00	  779.12	-1937.99	  434.15
     34.7700	  697.00	  707.05	-1920.92	  434.01
     34.8700	  683.00	  658.88	-1886.75	  433.88
     34.9700	  631.00	  629.32	-1909.20	  433.75
     35.0700	  691.00	  611.88	-1831.75	  433.61
     35.1700	  677.00	  601.35	-1835.23	  433.48
     35.2700	  611.00	  594.53	-1894.41	  433.36
     35.3700	  612.00	  589.72	-1888.59	  433.23
     35.4700	  542.00	  586.09	-1954.96	  433.11
     35.5700	  592.00	  583.23	-1902.10	  432.99
     35.6700	  595.00	  580.93	-1896.81	  432.87
     35.7700	  558.00	  579.05	-1931.93	  432.75
     35.8700	  593.00	  577.50	-1895.38	  432.63
     35.9700	  587.00	  576.22	-1900.09	  432.52
     36.0700	  573.00	  575.15	-1913.02	  432.41
     36.1700	  544.00	  574.26	-1941.13	  432.30
     36.2700	  548.00	  573.53	-1936.40	  432.19
     36.3700	  560.00	  572.94	-1923.81	  432.08
     36.4700	  539.00	  572.48	-1944.35	  431.98
     36.5700	  617.00	  572.14	-1866.02	  431.88
     36.6700	  601.00	  571.94	-1881.81	  431.78
     36.7700	  571.00	  571.87	-1911.74	  431.68
     36.8700	  576.00	  572.65	-1907.52	  431.58
     36.9700	  574.00	  572.93	-1909.81	  431.48
     37.0700	  559.00	  573.48	-1925.35	  431.39
     37.1700	  581.00	  574.38	-1904.25	  431.30
     37.2700	  563.00	  575.82	-1923.70	  431.21
     37.3700	  594.00	  578.10	-1894.98	  431.12
     37.4700	  585.00	  581.71	-1907.59	  431.03
     37.5700	  567.00	  587.31	-1931.19	  430.95
     37.6700	  633.00	  595.90	-1873.77	  430.87
     37.7700	  615.00	  608.44	-1904.31	  430.78
     37.8700	  623.00	  625.59	-1913.46	  430.70
     37.9700	  621.00	  646.76	-1936.63	  430.63
     38.0700	  649.00	  669.80	-1931.67	  430.55
     38.1700	  687.00	  690.39	-1914.26	  430.48
     38.2700	  676.00	  700.65	-1935.52	  430.40
     38.3700	  686.00	  696.91	-1921.79	  430.33
     38.4700	  636.00	  677.94	-1952.81	  430.26
     38.5700	  596.00	  651.71	-1966.59	  430.19
     38.6700	  591.00	  626.43	-1946.30	  430.13
     38.7700	  596.00	  606.13	-1921.01	  430.06
     38.8700	  599.00	  591.64	-1903.52	  430.00
     38.9700	  570.00	  582.14	-1923.01	  429.94
     39.0700	  542.00	  576.22	-1945.09	  429.88
     39.1700	  573.00	  572.56	-1910.44	  429.82
     39.2700	  607.00	  570.22	-1874.10	  429.76
     39.3700	  568.00	  568.61	-1911.49	  429.71
     39.4700	  552.00	  567.43	-1926.30	  429.65
     39.5700	  581.00	  566.51	-1896.38	  429.60
     39.6700	  555.00	  564.95	-1920.82	  429.55
     39.7700	  605.00	  564.37	-1870.25	  429.50
     39.8700	  557.00	  563.90	-1917.77	  429.45
     39.9700	  591.00	  563.51	-1883.39	  429.41
     40.0700	  591.00	  563.20	-1883.07	  429.36
     40.1700	  580.00	  562.94	-1893.81	  429.32
     40.2700	  565.00	  562.73	-1908.60	  429.27
     40.3700	  572.00	  562.57	-1901.44	  429.23
     40.4700	  538.00	  562.45	-1935.32	  429.19
     40.5700	  552.00	  562.90	-1921.78	  429.16
     40.6700	  565.00	  562.86	-1908.73	  429.12
     40.7700	  582.00	  562.85	-1891.73	  429.09
     40.8700	  569.00	  562.88	-1904.75	  429.05
     40.9700	  553.00	  562.95	-1920.82	  429.02
     41.0700	  541.00	  563.05	-1932.93	  428.99
     41.1700	  567.00	  563.26	-1907.14	  428.96
     41.2700	  537.00	  563.47	-1937.34	  428.93
     41.3700	  563.00	  563.73	-1911.60	  428.90
     41.4700	  498.00	  564.06	-1976.94	  428.88
     41.5700	  557.00	  564.49	-1918.36	  428.85
     41.6700	  560.00	  565.03	-1915.90	  428.83
     41.7700	  588.00	  565.72	-1888.59	  428.81
     41.8700	  532.00	  566.63	-1945.50	  428.79
     41.9700	  553.00	  567.89	-1925.77	  428.77
     42.0700	  550.00	  569.75	-1930.62	  428.75
     42.1700	  536.00	  572.61	-1947.48	  428.73
     42.2700	  545.00	  577.14	-1943.01	  428.72
     42.3700	  547.00	  584.23	-1948.11	  428.70
     42.4700	  578.00	  594.83	-1927.71	  428.69
     42.5700	  592.00	  609.69	-1928.56	  428.68
     42.6700	  638.00	  628.56	-1901.43	  428.66
     42.7700	  599.00	  649.58	-1961.45	  428.65
     42.8700	  649.00	  668.55	-1930.42	  428.65
     42.9700	  660.00	  679.30	-1930.18	  428.64
     43.0700	  652.00	  676.84	-1935.71	  428.63
     43.1700	  654.00	  662.11	-1918.99	  428.63
     43.2700	  586.00	  641.32	-1966.19	  428.62
     43.3700	  583.00	  620.55	-1948.42	  428.62
     43.4700	  563.00	  603.16	-1951.04	  428.62
     43.5700	  578.00	  590.17	-1923.04	  428.62
     43.6700	  550.00	  581.26	-1942.13	  428.62
     43.7700	  553.00	  575.72	-1933.59	  428.62
     43.8700	  581.00	  572.15	-1902.03	  428.62
     43.9700	  627.00	  569.93	-1853.81	  428.62
     44.0700	  571.00	  568.50	-1908.37	  428.63
     44.1700	  551.00	  567.52	-1927.39	  428.63
     44.2700	  581.00	  566.82	-1896.69	  428.64
     44.3700	  547.00	  566.30	-1930.17	  428.65
     44.4700	  591.00	  565.91	-1885.78	  428.65
     44.5700	  589.00	  565.62	-1887.50	  428.66
     44.6700	  581.00	  565.41	-1895.29	  428.67
     44.7700	  572.00	  565.50	-1904.37	  428.68
     44.8700	  529.00	  565.43	-1947.31	  428.70
     44.9700	  597.00	  565.40	-1879.27	  428.71
     45.0700	  561.00	  565.41	-1915.28	  428.72
     45.1700	  542.00	  565.45	-1934.32	  428.74
     45.2700	  566.00	  565.53	-1910.40	  428.75
     45.3700	  557.00	  565.64	-1919.51	  428.77
     45.4700	  546.00	  565.78	-1930.66	  428.79
     45.5700	  564.00	  566.05	-1912.93	  428.81
     45.6700	  553.00	  566.26	-1924.13	  428.82
     45.7700	  551.00	  566.49	-1926.37	  428.84
     45.8700	  601.00	  566.76	-1876.63	  428.87
     45.9700	  564.00	  567.06	-1913.93	  428.89
     46.0700	  633.00	  567.39	-1845.27	  428.91
     46.1700	  581.00	  567.77	-1897.64	  428.93
     46.2700	  624.00	  568.19	-1855.06	  428.96
     46.3700	  563.00	  568.76	-1916.63	  428.98
     46.4700	  595.00	  569.28	-1885.15	  429.01
     46.5700	  569.00	  569.69	-1911.56	  429.03
     46.6700	  600.00	  570.35	-1881.22	  429.06
     46.7700	  557.00	  571.10	-1924.98	  429.09
     46.8700	  553.00	  571.97	-1929.84	  429.12
     46.9700	  615.00	  572.98	-1868.85	  429.15
     47.0700	  604.00	  574.20	-1881.07	  429.18
     47.1700	  549.00	  575.74	-1937.61	  429.21
     47.2700	  576.00	  577.79	-1912.66	  429.24
     47.3700	  601.00	  580.65	-1890.52	  429.27
     47.4700	  574.00	  584.77	-1921.64	  429.30
     47.5700	  623.00	  590.71	-1878.58	  429.34
     47.6700	  550.00	  599.02	-1959.89	  429.37
     47.7700	  622.00	  610.07	-1898.94	  429.40
     47.8700	  656.00	  623.68	-1878.55	  429.44
     47.9700	  655.00	  638.82	-1894.69	  429.47
     48.0700	  651.00	  653.18	-1913.06	  429.51
     48.1700	  657.00	  663.24	-1917.12	  429.55
     48.2700	  653.00	  665.68	-1923.55	  429.59
     48.3700	  686.00	  660.45	-1885.33	  429.62
     48.4700	  644.00	  649.71	-1916.59	  429.66
     48.5700	  634.00	  637.80	-1914.68	  429.70
     48.6700	  645.00	  627.42	-1893.30	  429.74
     48.7700	  596.00	  619.88	-1934.75	  429.78
     48.8700	  593.00	  615.52	-1933.39	  429.82
     48.9700	  582.00	  614.17	-1943.05	  429.86
     49.0700	  578.00	  615.47	-1948.34	  429.91
     49.1700	  639.00	  619.06	-1890.93	  429.95
     49.2700	  622.00	  624.83	-1913.70	  429.99
     49.3700	  615.00	  633.09	-1928.96	  430.04
     49.4700	  659.00	  644.92	-1896.80	  430.08
     49.5700	  690.00	  663.01	-1883.89	  430.12
     49.6700	  682.00	  693.13	-1922.00	  430.17
     49.7700	  727.00	  746.30	-1930.17	  430.21
     49.8700	  858.00	  840.53	-1893.41	  430.26
     49.9700	  990.00	  999.96	-1920.84	  430.30
     50.0700	 1313.00	 1248.10	-1845.97	  430.35
     50.1700	 1660.00	 1594.50	-1845.38	  430.40
     50.2700	 2141.00	 2017.67	-1787.54	  430.45
     50.3700	 2521.00	 2450.38	-1840.25	  430.49
     50.4700	 2828.00	 2778.92	-1861.79	  430.54
     50.5700	 3031.00	 2878.49	-1758.37	  430.59
     50.6700	 2657.00	 2701.01	-1954.89	  430.64
     50.7700	 2291.00	 2326.36	-1946.23	  430.69
     50.8700	 1793.00	 1888.08	-2005.96	  430.74
     50.9700	 1370.00	 1489.32	-2030.20	  430.79
     51.0700	 1120.00	 1181.56	-1972.44	  430.84
     51.1700	  874.00	  973.87	-2010.74	  430.89
     51.2700	  828.00	  849.20	-1932.07	  430.94
     51.3700	  729.00	  780.92	-1962.79	  430.99
     51.4700	  737.00	  744.40	-1918.28	  431.04
     51.5700	  692.00	  722.60	-1941.48	  431.09
     51.6700	  718.00	  707.00	-1899.88	  431.14
     51.7700	  699.00	  695.06	-1906.93	  431.19
     51.8700	  708.00	  686.85	-1889.73	  431.25
     51.9700	  711.00	  682.55	-1882.43	  431.30
     52.0700	  617.00	  681.40	-1975.28	  431.35
     52.1700	  697.00	  681.55	-1895.42	  431.40
     52.2700	  659.00	  680.43	-1932.30	  431.46
     52.3700	  653.00	  676.19	-1934.06	  431.51
     52.4700	  696.00	  669.17	-1884.05	  431.56
     52.5700	  616.00	  661.54	-1956.42	  431.62
     52.6700	  667.00	  655.66	-1899.54	  431.67
     52.7700	  674.00	  653.44	-1890.32	  431.72
     52.8700	  633.00	  656.53	-1934.41	  431.78
     52.9700	  677.00	  666.74	-1900.61	  431.83
     53.0700	  681.00	  686.32	-1916.19	  431.89
     53.1700	  744.00	  718.10	-1884.98	  431.94
     53.2700	  733.00	  765.04	-1942.91	  431.99
     53.3700	  874.00	  829.28	-1866.15	  432.05
     53.4700	  894.00	  910.85	-1927.72	  432.10
     53.5700	 1060.00	 1005.60	-1856.47	  432.16
     53.6700	 1125.00	 1103.70	-1889.57	  432.21
     53.7700	 1212.00	 1187.66	-1886.54	  432.27
     53.8700	 1265.00	 1234.85	-1880.72	  432.32
     53.9700	 1231.00	 1228.40	-1908.27	  432.38
     54.0700	 1184.00	 1170.61	-1897.48	  432.43
     54.1700	 1107.00	 1081.22	-1885.10	  432.49
     54.2700	  967.00	  982.79	-1926.66	  432.54
     54.3700	  890.00	  890.99	-1911.86	  432.60
     54.4700	  797.00	  813.96	-1927.84	  432.65
     54.5700	  704.00	  754.40	-1961.27	  432.71
     54.6700	  710.00	  711.40	-1912.27	  432.76
     54.7700	  711.00	  682.19	-1882.06	  432.82
     54.8700	  646.00	  663.35	-1928.22	  432.87
     54.9700	  668.00	  651.73	-1894.61	  432.93
     55.0700	  618.00	  644.92	-1937.80	  432.98
     55.1700	  647.00	  641.26	-1905.13	  433.04
     55.2700	  630.00	  639.73	-1920.61	  433.09
     55.3700	  660.00	  639.81	-1890.68	  433.15
     55.4700	  644.00	  641.23	-1908.10	  433.20
     55.5700	  682.00	  643.91	-1872.79	  433.26
     55.6700	  645.00	  647.93	-1913.80	  433.31
     55.7700	  686.00	  653.45	-1878.32	  433.36
     55.8700	  624.00	  660.87	-1947.75	  433.42
     55.9700	  664.00	  670.93	-1917.81	  433.47
     56.0700	  657.00	  685.04	-1938.91	  433.53
     56.1700	  717.00	  705.79	-1899.66	  433.58
     56.2700	  761.00	  737.69	-1887.56	  433.63
     56.3700	  777.00	  787.89	-1921.76	  433.69
     56.4700	  840.00	  866.56	-1937.43	  433.74
     56.5700	 1000.00	  985.97	-1896.84	  433.79
     56.6700	 1167.00	 1158.26	-1902.14	  433.85
     56.7700	 1428.00	 1390.82	-1873.69	  433.90
     56.8700	 1722.00	 1680.78	-1869.65	  433.95
     56.9700	 2057.00	 2009.04	-1862.91	  434.00
     57.0700	 2373.00	 2334.73	-1872.61	  434.06
     57.1700	 2705.00	 2593.60	-1799.48	  434.11
     57.2700	 2744.00	 2711.75	-1878.63	  434.16
     57.3700	 2686.00	 2646.71	-1871.58	  434.21
     57.4700	 2398.00	 2422.45	-1935.33	  434.26
     57.5700	 2012.00	 2109.62	-2008.49	  434.31
     57.6700	 1693.00	 1778.72	-1996.60	  434.36
     57.7700	 1425.00	 1477.72	-1963.59	  434.41
     57.8700	 1157.00	 1231.35	-1985.23	  434.46
     57.9700	  977.00	 1046.68	-1980.55	  434.51
     58.0700	  876.00	  919.15	-1954.03	  434.56
     58.1700	  854.00	  838.39	-1895.27	  434.61
     58.2700	  765.00	  793.39	-1939.26	  434.66
     58.3700	  760.00	  775.76	-1926.64	  434.71
     58.4700	  800.00	  780.72	-1891.60	  434.76
     58.5700	  789.00	  806.46	-1928.34	  434.81
     58.6700	  822.00	  852.56	-1941.44	  434.85
     58.7700	  940.00	  917.92	-1888.79	  434.90
     58.8700	  971.00	  998.86	-1938.73	  434.95
     58.9700	 1052.00	 1087.62	-1946.49	  434.99
     59.0700	 1171.00	 1172.34	-1912.22	  435.04
     59.1700	 1189.00	 1240.94	-1962.82	  435.09
     59.2700	 1260.00	 1287.16	-1938.03	  435.13
     59.3700	 1288.00	 1310.60	-1933.47	  435.18
     59.4700	 1320.00	 1311.04	-1901.91	  435.22
     59.5700	 1281.00	 1288.44	-1918.31	  435.27
     59.6700	 1274.00	 1249.37	-1886.24	  435.31
     59.7700	 1220.00	 1207.27	-1898.15	  435.35
     59.8700	 1213.00	 1175.55	-1873.43	  435.40
     59.9700	 1228.00	 1163.44	-1846.32	  435.44
     60.0700	 1235.00	 1177.21	-1853.09	  435.48
     60.1700	 1305.00	 1221.51	-1827.38	  435.52
     60.2700	 1316.00	 1297.25	-1892.12	  435.56
     60.3700	 1440.00	 1397.47	-1868.34	  435.61
     60.4700	 1549.00	 1504.80	-1866.67	  435.65
     60.5700	 1474.00	 1591.72	-2028.59	  435.69
     60.6700	 1581.00	 1626.61	-1956.49	  435.72
     60.7700	 1554.00	 1589.44	-1946.31	  435.76
     60.8700	 1432.00	 1486.26	-1965.13	  435.80
     60.9700	 1284.00	 1343.78	-1970.66	  435.84
     61.0700	 1160.00	 1191.46	-1942.34	  435.88
     61.1700	  965.00	 1051.19	-1997.06	  435.91
     61.2700	  909.00	  935.70	-1937.58	  435.95
     61.3700	  790.00	  850.11	-1970.98	  435.99
     61.4700	  779.00	  794.27	-1926.15	  436.02
     61.5700	  810.00	  765.58	-1866.45	  436.06
     61.6700	  748.00	  761.54	-1924.41	  436.09
     61.7700	  783.00	  781.39	-1909.26	  436.12
     61.8700	  808.00	  826.41	-1929.29	  436.16
     61.9700	  934.00	  898.96	-1875.83	  436.19
     62.0700	 1003.00	 1000.33	-1908.21	  436.22
     62.1700	 1183.00	 1128.41	-1856.28	  436.25
     62.2700	 1342.00	 1275.12	-1844.00	  436.28
     62.3700	 1468.00	 1424.72	-1867.60	  436.32
     62.4700	 1550.00	 1552.90	-1913.78	  436.34
     62.5700	 1541.00	 1630.00	-1999.87	  436.37
     62.6700	 1578.00	 1632.73	-1965.60	  436.40
     62.7700	 1563.00	 1559.74	-1907.61	  436.43
     62.8700	 1340.00	 1432.71	-2003.59	  436.46
     62.9700	 1261.00	 1281.45	-1931.32	  436.48
     63.0700	 1090.00	 1130.97	-1951.84	  436.51
     63.1700	  919.00	  997.55	-1989.42	  436.54
     63.2700	  906.00	  889.48	-1894.35	  436.56
     63.3700	  804.00	  808.49	-1915.37	  436.58
     63.4700	  754.00	  752.07	-1908.94	  436.61
     63.5700	  756.00	  715.48	-1870.35	  436.63
     63.6700	  716.00	  693.64	-1888.51	  436.65
     63.7700	  656.00	  682.41	-1937.28	  436.67
     63.8700	  748.00	  679.09	-1841.96	  436.69
     63.9700	  716.00	  682.54	-1877.41	  436.71
     64.0700	  720.00	  693.12	-1884.00	  436.73
     64.1700	  727.00	  712.35	-1896.22	  436.75
     64.2700	  730.00	  742.12	-1923.00	  436.77
     64.3700	  787.00	  786.21	-1910.09	  436.79
     64.4700	  869.00	  846.61	-1888.49	  436.80
     64.5700	  947.00	  924.59	-1888.46	  436.82
     64.6700	 1040.00	 1019.09	-1889.97	  436.84
     64.7700	 1117.00	 1125.54	-1919.41	  436.85
     64.8700	 1336.00	 1234.80	-1809.67	  436.86
     64.9700	 1313.00	 1333.16	-1931.03	  436.88
     65.0700	 1368.00	 1404.82	-1947.69	  436.89
     65.1700	 1435.00	 1436.77	-1912.65	  436.90
     65.2700	 1361.00	 1422.60	-1972.47	  436.91
     65.3700	 1355.00	 1365.90	-1921.77	  436.92
     65.4700	 1256.00	 1279.16	-1934.04	  436.93
     65.5700	 1078.00	 1178.13	-2011.01	  436.94
     65.6700	 1038.00	 1076.93	-1949.80	  436.95
     65.7700	  945.00	  984.60	-1950.47	  436.95
     65.8700	  805.00	  905.42	-2011.29	  436.96
     65.9700	  819.00	  840.61	-1932.49	  436.96
     66.0700	  779.00	  789.65	-1921.52	  436.97
     66.1700	  718.00	  750.87	-1943.74	  436.97
     66.2700	  743.00	  722.31	-1890.19	  436.98
     66.3700	  622.00	  701.84	-1990.72	  436.98
     66.4700	  643.00	  687.54	-1955.41	  436.98
     66.5700	  660.00	  677.92	-1928.80	  436.98
     66.6700	  685.00	  671.98	-1897.85	  436.98
     66.7700	  653.00	  669.03	-1926.91	  436.98
     66.8700	  671.00	  668.74	-1908.62	  436.98
     66.9700	  626.00	  671.13	-1956.00	  436.97
     67.0700	  715.00	  676.30	-1872.17	  436.97
     67.1700	  702.00	  685.23	-1894.10	  436.97
     67.2700	  656.00	  699.20	-1954.08	  436.96
     67.3700	  756.00	  720.89	-1875.76	  436.95
     67.4700	  729.00	  754.10	-1935.97	  436.95
     67.5700	  800.00	  804.08	-1914.96	  436.94
     67.6700	  936.00	  877.29	-1852.17	  436.93
     67.7700	 1052.00	  980.73	-1839.60	  436.92
     67.8700	 1117.00	 1120.38	-1914.25	  436.91
     67.9700	 1278.00	 1299.52	-1932.39	  436.90
     68.0700	 1599.00	 1516.33	-1828.20	  436.89
     68.1700	 1751.00	 1761.83	-1921.70	  436.88
     68.2700	 1969.00	 2018.14	-1960.02	  436.86
     68.3700	 2273.00	 2257.17	-1895.05	  436.85
     68.4700	 2393.00	 2441.49	-1959.36	  436.83
     68.5700	 2516.00	 2532.30	-1927.17	  436.81
     68.6700	 2459.00	 2506.43	-1958.31	  436.80
     68.7700	 2325.00	 2370.78	-1956.66	  436.78
     68.8700	 2160.00	 2157.54	-1908.41	  436.76
     68.9700	 1897.00	 1906.62	-1920.49	  436.74
     69.0700	 1679.00	 1651.90	-1883.78	  436.72
     69.1700	 1434.00	 1416.99	-1893.86	  436.70
     69.2700	 1292.00	 1215.67	-1834.54	  436.67
     69.3700	 1060.00	 1053.52	-1904.40	  436.65
     69.4700	  967.00	  929.92	-1873.79	  436.63
     69.5700	  903.00	  840.12	-1847.99	  436.60
     69.6700	  859.00	  777.45	-1829.33	  436.57
     69.7700	  817.00	  735.00	-1828.87	  436.55
     69.8700	  717.00	  706.72	-1900.59	  436.52
     69.9700	  803.00	  687.92	-1795.79	  436.49
     70.0700	  717.00	  675.27	-1869.15	  436.46
     70.1700	  665.00	  666.61	-1912.48	  436.43
     70.2700	  666.00	  660.58	-1905.45	  436.40
     70.3700	  668.00	  656.39	-1899.27	  436.36
     70.4700	  649.00	  653.63	-1915.51	  436.33
     70.5700	  726.00	  652.09	-1836.97	  436.29
     70.6700	  644.00	  651.70	-1918.58	  436.26
     70.7700	  663.00	  652.52	-1900.39	  436.22
     70.8700	  693.00	  654.75	-1872.62	  436.18
     70.9700	  642.00	  658.80	-1927.67	  436.14
     71.0700	  666.00	  665.19	-1910.06	  436.10
     71.1700	  684.00	  675.47	-1902.35	  436.06
     71.2700	  715.00	  691.22	-1887.10	  436.02
     71.3700	  746.00	  714.89	-1879.76	  435.98
     71.4700	  740.00	  749.71	-1920.59	  435.94
     71.5700	  821.00	  799.54	-1889.41	  435.89
     71.6700	  907.00	  868.39	-1872.26	  435.85
     71.7700	  974.00	  959.78	-1896.65	  435.80
     71.8700	 1071.00	 1075.76	-1915.64	  435.75
     71.9700	 1227.00	 1215.75	-1899.63	  435.70
     72.0700	 1367.00	 1375.53	-1919.40	  435.65
     72.1700	 1555.00	 1546.23	-1902.11	  435.60
     72.2700	 1728.00	 1713.74	-1896.61	  435.55
     72.3700	 1793.00	 1858.43	-1976.30	  435.50
     72.4700	 1918.00	 1957.17	-1950.04	  435.45
     72.5700	 2030.00	 1990.65	-1871.52	  435.39
     72.6700	 1942.00	 1949.73	-1918.60	  435.34
     72.7700	 1741.00	 1844.49	-2014.36	  435.28
     72.8700	 1660.00	 1695.75	-1946.62	  435.22
     72.9700	 1507.00	 1526.48	-1930.35	  435.16
     73.0700	 1287.00	 1355.74	-1979.61	  435.11
     73.1700	 1234.00	 1197.06	-1873.93	  435.04
     73.2700	 1017.00	 1058.64	-1952.52	  434.98
     73.3700	  933.00	  944.21	-1922.09	  434.92
     73.4700	  814.00	  854.02	-1950.89	  434.86
     73.5700	  818.00	  785.84	-1878.72	  434.79
     73.6700	  731.00	  736.15	-1916.02	  434.73
     73.7700	  714.00	  700.94	-1897.81	  434.66
     73.8700	  695.00	  676.50	-1892.38	  434.59
     73.9700	  678.00	  659.75	-1892.63	  434.53
     74.0700	  692.00	  647.83	-1866.70	  434.46
     74.1700	  681.00	  640.17	-1870.04	  434.39
     74.2700	  628.00	  635.17	-1918.04	  434.31
     74.3700	  666.00	  632.16	-1877.04	  434.24
     74.4700	  602.00	  630.72	-1939.59	  434.17
     74.5700	  642.00	  630.54	-1899.41	  434.09
     74.6700	  650.00	  631.34	-1892.22	  434.02
     74.7700	  663.00	  632.85	-1880.72	  433.94
     74.8700	  666.00	  634.69	-1879.56	  433.86
     74.9700	  684.00	  636.43	-1863.30	  433.79
     75.0700	  666.00	  637.52	-1882.40	  433.71
     75.1700	  744.00	  637.67	-1804.54	  433.63
     75.2700	  744.00	  636.61	-1803.48	  433.54
     75.3700	  651.00	  634.53	-1894.41	  433.46
     75.4700	  682.00	  631.92	-1860.80	  433.38
     75.5700	  666.00	  629.43	-1874.30	  433.29
     75.6700	  720.00	  627.74	-1818.62	  433.21
     75.7700	  664.00	  627.59	-1874.47	  433.12
     75.8700	  650.00	  629.64	-1890.52	  433.03
     75.9700	  643.00	  634.85	-1902.72	  432.95
     76.0700	  685.00	  643.95	-1869.83	  432.86
     76.1700	  646.00	  657.74	-1922.62	  432.77
     76.2700	  652.00	  676.86	-1935.73	  432.67
     76.3700	  728.00	  701.67	-1884.54	  432.58
     76.4700	  766.00	  732.05	-1876.93	  432.49
     76.5700	  779.00	  767.29	-1899.16	  432.39
     76.6700	  740.00	  805.84	-1976.72	  432.30
     76.7700	  878.00	  845.27	-1878.15	  432.20
     76.8700	  882.00	  882.14	-1911.02	  432.10
     76.9700	  882.00	  912.11	-1940.98	  432.00
     77.0700	  974.00	  930.58	-1867.45	  431.90
     77.1700	  866.00	  934.09	-1978.96	  431.80
     77.2700	  905.00	  921.83	-1927.71	  431.70
     77.3700	  872.00	  896.11	-1934.99	  431.60
     77.4700	  871.00	  861.18	-1901.05	  431.50
     77.5700	  791.00	  821.58	-1941.45	  431.39
     77.6700	  805.00	  781.20	-1887.07	  431.29
     77.7700	  751.00	  742.74	-1902.61	  431.18
     77.8700	  731.00	  708.48	-1888.36	  431.07
     77.9700	  657.00	  679.27	-1933.15	  430.96
     78.0700	  701.00	  655.41	-1865.28	  430.85
     78.1700	  680.00	  636.67	-1867.54	  430.74
     78.2700	  632.00	  622.45	-1901.32	  430.63
     78.3700	  606.00	  611.99	-1916.86	  430.52
     78.4700	  562.00	  604.47	-1953.34	  430.40
     78.5700	  587.00	  599.17	-1923.04	  430.29
     78.6700	  589.00	  595.47	-1917.34	  430.17
     78.7700	  614.00	  592.90	-1889.77	  430.06
     78.8700	  597.00	  591.12	-1905.00	  429.94
     78.9700	  613.00	  589.86	-1887.74	  429.82
     79.0700	  610.00	  589.08	-1889.96	  429.70
     79.1700	  566.00	  588.64	-1933.52	  429.58
     79.2700	  545.00	  588.51	-1954.38	  429.46
     79.3700	  582.00	  588.67	-1917.55	  429.34
     79.4700	  584.00	  589.15	-1916.02	  429.21
     79.5700	  619.00	  589.97	-1881.85	  429.09
     79.6700	  577.00	  591.21	-1925.08	  428.96
     79.7700	  572.00	  592.94	-1931.81	  428.84
     79.8700	  579.00	  595.31	-1927.18	  428.71
     79.9700	  573.00	  598.53	-1936.40	  428.58
     80.0700	  584.00	  602.90	-1929.78	  428.45
     80.1700	  616.00	  608.90	-1903.77	  428.32
     80.2700	  663.00	  617.17	-1865.05	  428.19
     80.3700	  632.00	  628.58	-1907.46	  428.06
     80.4700	  656.00	  643.98	-1898.86	  427.93
     80.5700	  708.00	  665.07	-1867.94	  427.79
     80.6700	  727.00	  692.93	-1876.80	  427.66
     80.7700	  721.00	  728.80	-1918.67	  427.52
     80.8700	  755.00	  773.54	-1929.42	  427.39
     80.9700	  879.00	  827.38	-1859.26	  427.25
     81.0700	  917.00	  889.54	-1883.41	  427.11
     81.1700	 1040.00	  957.97	-1828.85	  426.97
     81.2700	 1092.00	 1029.23	-1848.10	  426.83
     81.3700	 1124.00	 1098.44	-1885.31	  426.69
     81.4700	 1243.00	 1159.80	-1827.67	  426.55
     81.5700	 1214.00	 1207.56	-1904.43	  426.40
     81.6700	 1240.00	 1237.44	-1908.31	  426.26
     81.7700	 1220.00	 1247.43	-1938.30	  426.12
     81.8700	 1222.00	 1237.77	-1926.64	  425.97
     81.9700	 1171.00	 1210.47	-1950.34	  425.82
     82.0700	 1182.00	 1168.96	-1897.84	  425.68
     82.1700	 1063.00	 1117.53	-1965.40	  425.53
     82.2700	 1038.00	 1060.50	-1933.38	  425.38
     82.3700	  970.00	 1001.71	-1942.59	  425.23
     82.4700	  969.00	  944.28	-1886.16	  425.08
     82.5700	  869.00	  890.61	-1932.48	  424.93
     82.6700	  828.00	  842.24	-1925.11	  424.77
     82.7700	  762.00	  799.85	-1948.73	  424.62
     82.8700	  739.00	  763.33	-1935.21	  424.46
     82.9700	  689.00	  732.10	-1953.97	  424.31
     83.0700	  697.00	  705.46	-1919.33	  424.15
     83.1700	  646.00	  682.86	-1947.74	  424.00
     83.2700	  613.00	  663.94	-1961.81	  423.84
     83.3700	  642.00	  648.44	-1917.32	  423.68
     83.4700	  611.00	  636.19	-1936.06	  423.52
     83.5700	  620.00	  627.01	-1917.89	  423.36
     83.6700	  635.00	  620.76	-1896.64	  423.20
     83.7700	  593.00	  617.26	-1935.13	  423.04
     83.8700	  616.00	  616.24	-1911.12	  422.88
     83.9700	  591.00	  617.41	-1937.28	  422.71
     84.0700	  649.00	  620.32	-1882.20	  422.55
     84.1700	  578.00	  624.47	-1957.34	  422.38
     84.2700	  644.00	  629.11	-1895.99	  422.22
     84.3700	  622.00	  633.76	-1922.63	  422.05
     84.4700	  624.00	  637.52	-1924.39	  421.88
     84.5700	  577.00	  639.58	-1973.45	  421.72
     84.6700	  621.00	  639.57	-1929.44	  421.55
     84.7700	  651.00	  637.22	-1897.09	  421.38
     84.8700	  613.00	  632.75	-1930.62	  421.21
     84.9700	  593.00	  626.69	-1944.56	  421.04
     85.0700	  587.00	  619.69	-1943.56	  420.86
     85.1700	  596.00	  612.38	-1927.25	  420.69
     85.2700	  588.00	  605.29	-1928.17	  420.52
     85.3700	  601.00	  598.85	-1908.73	  420.34
     85.4700	  574.00	  593.37	-1930.24	  420.17
     85.5700	  579.00	  589.05	-1920.93	  419.99
     85.6700	  617.00	  586.02	-1879.90	  419.82
     85.7700	  546.00	  584.34	-1949.21	  419.64
     85.8700	  594.00	  584.02	-1900.90	  419.46
     85.9700	  547.00	  585.07	-1948.94	  419.29
     86.0700	  610.00	  587.46	-1888.34	  419.11
     86.1700	  609.00	  591.17	-1893.04	  418.93
     86.2700	  624.00	  596.14	-1883.01	  418.75
     86.3700	  612.00	  602.30	-1901.17	  418.57
     86.4700	  642.00	  609.52	-1878.40	  418.39
     86.5700	  644.00	  617.65	-1884.52	  418.20
     86.6700	  597.00	  626.44	-1940.32	  418.02
     86.7700	  617.00	  635.62	-1929.50	  417.84
     86.8700	  598.00	  644.86	-1957.73	  417.65
     86.9700	  655.00	  653.81	-1909.69	  417.47
     87.0700	  644.00	  662.30	-1929.18	  417.28
     87.1700	  698.00	  670.29	-1883.17	  417.10
     87.2700	  633.00	  677.96	-1955.84	  416.91
     87.3700	  622.00	  685.61	-1974.48	  416.73
     87.4700	  703.00	  693.45	-1901.32	  416.54
     87.5700	  702.00	  701.54	-1910.42	  416.35
     87.6700	  741.00	  709.70	-1879.57	  416.16
     87.7700	  715.00	  717.45	-1913.33	  415.97
     87.8700	  691.00	  724.09	-1943.97	  415.78
     87.9700	  665.00	  728.71	-1974.58	  415.59
     88.0700	  772.00	  730.38	-1869.25	  415.40
     88.1700	  695.00	  728.43	-1944.30	  415.21
     88.2700	  657.00	  722.70	-1976.58	  415.02
     88.3700	  716.00	  713.59	-1908.46	  414.83
     88.4700	  695.00	  701.89	-1917.77	  414.64
     88.5700	  654.00	  688.60	-1945.48	  414.44
     88.6700	  680.00	  674.70	-1905.57	  414.25
     88.7700	  659.00	  661.06	-1912.94	  414.05
     88.8700	  615.00	  647.99	-1943.86	  413.86
     88.9700	  663.00	  636.93	-1884.80	  413.67
     89.0700	  598.00	  627.81	-1940.69	  413.47
     89.1700	  637.00	  620.87	-1894.74	  413.27
     89.2700	  671.00	  616.12	-1856.00	  413.08
     89.3700	  661.00	  613.46	-1863.34	  412.88
     89.4700	  635.00	  612.63	-1888.51	  412.68
     89.5700	  663.00	  613.27	-1861.14	  412.49
     89.6700	  623.00	  614.91	-1902.78	  412.29
     89.7700	  649.00	  617.04	-1878.91	  412.09
     89.8700	  654.00	  619.10	-1875.97	  411.89
     89.9700	  663.00	  620.53	-1868.40	  411.69
     90.0700	  636.00	  620.86	-1895.74	  411.49
     90.1700	  664.00	  619.81	-1866.69	  411.29
     90.2700	  692.00	  617.32	-1836.19	  411.10
     90.3700	  679.00	  613.55	-1845.43	  410.90
     90.4700	  626.00	  608.84	-1893.72	  410.69
     90.5700	  640.00	  603.55	-1874.43	  410.49
     90.6700	  586.00	  598.05	-1922.93	  410.29
     90.7700	  608.00	  592.64	-1895.51	  410.09
     90.8700	  606.00	  587.56	-1892.44	  409.89
     90.9700	  652.00	  582.99	-1841.87	  409.69
     91.0700	  602.00	  579.04	-1887.92	  409.49
     91.1700	  642.00	  575.77	-1844.64	  409.28
     91.2700	  606.00	  573.17	-1878.05	  409.08
     91.3700	  563.00	  571.23	-1919.10	  408.88
     91.4700	  636.00	  569.89	-1844.77	  408.68
     91.5700	  536.00	  569.11	-1943.99	  408.47
     91.6700	  597.00	  568.85	-1882.72	  408.27
     91.7700	  578.00	  569.07	-1901.95	  408.07
     91.8700	  597.00	  569.79	-1883.66	  407.86
     91.9700	  554.00	  571.04	-1927.91	  407.66
     92.0700	  563.00	  572.90	-1920.77	  407.45
     92.1700	  575.00	  575.48	-1911.35	  407.25
     92.2700	  603.00	  578.94	-1886.81	  407.05
     92.3700	  576.00	  583.46	-1918.34	  406.84
     92.4700	  570.00	  589.26	-1930.14	  406.64
     92.5700	  591.00	  596.56	-1916.43	  406.43
     92.6700	  605.00	  605.56	-1911.43	  406.23
     92.7700	  605.00	  616.44	-1922.31	  406.03
     92.8700	  616.00	  629.32	-1924.20	  405.82
     92.9700	  638.00	  644.25	-1917.13	  405.62
     93.0700	  574.00	  661.16	-1998.04	  405.41
     93.1700	  661.00	  679.87	-1929.75	  405.21
     93.2700	  620.00	  700.05	-1990.92	  405.00
     93.3700	  740.00	  721.21	-1892.09	  404.80
     93.4700	  740.00	  742.74	-1913.61	  404.59
     93.5700	  737.00	  763.87	-1937.74	  404.39
     93.6700	  740.00	  783.81	-1954.68	  404.18
     93.7700	  729.00	  801.84	-1983.72	  403.98
     93.8700	  848.00	  817.58	-1880.46	  403.78
     93.9700	  838.00	  831.03	-1903.91	  403.57
     94.0700	  756.00	  842.61	-1997.49	  403.37
     94.1700	  819.00	  852.97	-1944.84	  403.16
     94.2700	  829.00	  862.76	-1944.63	  402.96
     94.3700	  823.00	  872.54	-1960.41	  402.76
     94.4700	  865.00	  882.37	-1928.24	  402.55
     94.5700	  889.00	  893.12	-1914.99	  402.35
     94.6700	  920.00	  904.69	-1895.57	  402.15
     94.7700	  876.00	  917.31	-1952.19	  401.94
     94.8700	  885.00	  931.18	-1957.05	  401.74
     94.9700	  906.00	  946.28	-1951.15	  401.54
     95.0700	  936.00	  962.25	-1937.12	  401.34
     95.1700	  992.00	  978.27	-1897.14	  401.13
     95.2700	  975.00	  993.07	-1928.95	  400.93
     95.3700	 1011.00	 1005.02	-1904.89	  400.73
     95.4700	  961.00	 1012.30	-1962.17	  400.53
     95.5700	 1023.00	 1013.26	-1901.13	  400.33
     95.6700	  966.00	 1006.79	-1951.67	  400.13
     95.7700	  973.00	  992.70	-1930.57	  399.93
     95.8700	  981.00	  971.75	-1901.62	  399.73
     95.9700	  916.00	  945.50	-1940.37	  399.53
     96.0700	  890.00	  915.96	-1936.84	  399.33
     96.1700	  860.00	  885.33	-1936.20	  399.13
     96.2700	  916.00	  855.75	-1850.62	  398.93
     96.3700	  843.00	  829.22	-1897.09	  398.74
     96.4700	  852.00	  807.53	-1866.41	  398.54
     96.5700	  750.00	  792.23	-1953.10	  398.34
     96.6700	  812.00	  784.59	-1883.46	  398.15
     96.7700	  787.00	  785.67	-1909.55	  397.95
     96.8700	  839.00	  796.27	-1868.14	  397.75
     96.9700	  837.00	  816.92	-1890.79	  397.56
     97.0700	  880.00	  847.93	-1878.80	  397.36
     97.1700	  895.00	  889.32	-1905.19	  397.17
     97.2700	  917.00	  940.80	-1934.67	  396.98
     97.3700	 1007.00	 1001.68	-1905.56	  396.78
     97.4700	 1148.00	 1070.81	-1833.69	  396.59
     97.5700	 1167.00	 1146.50	-1890.37	  396.40
     97.6700	 1184.00	 1226.44	-1953.32	  396.21
     97.7700	 1342.00	 1307.76	-1876.64	  396.02
     97.8700	 1389.00	 1386.93	-1908.81	  395.83
     97.9700	 1506.00	 1459.85	-1864.72	  395.64
     98.0700	 1472.00	 1522.05	-1960.92	  395.45
     98.1700	 1524.00	 1569.14	-1956.02	  395.27
     98.2700	 1560.00	 1597.47	-1948.35	  395.08
     98.3700	 1577.00	 1604.85	-1938.72	  394.89
     98.4700	 1501.00	 1591.06	-2000.94	  394.71
     98.5700	 1544.00	 1557.89	-1924.77	  394.52
     98.6700	 1468.00	 1508.65	-1951.52	  394.34
     98.7700	 1399.00	 1447.42	-1959.30	  394.16
     98.8700	 1404.00	 1378.51	-1885.38	  393.97
     98.9700	 1371.00	 1306.05	-1845.92	  393.79
     99.0700	 1254.00	 1233.80	-1890.67	  393.61
     99.1700	 1132.00	 1165.04	-1943.91	  393.43
     99.2700	 1074.00	 1102.53	-1939.40	  393.25
     99.3700	 1051.00	 1048.57	-1908.44	  393.08
     99.4700	  997.00	 1005.04	-1918.92	  392.90
     99.5700	 1008.00	  973.43	-1876.30	  392.72
     99.6700	  958.00	  954.83	-1907.70	  392.55
     99.7700	  975.00	  950.02	-1885.90	  392.37
     99.8700	  954.00	  959.48	-1916.36	  392.20
     99.9700	  969.00	  983.38	-1925.25	  392.03
    100.0700	 1037.00	 1021.58	-1895.45	  391.86
    100.1700	 1023.00	 1073.65	-1961.52	  391.69
    100.2700	 1155.00	 1138.79	-1894.66	  391.52
    100.3700	 1241.00	 1215.83	-1885.71	  391.35
    100.4700	 1267.00	 1303.12	-1946.99	  391.18
    100.5700	 1322.00	 1398.52	-1987.39	  391.02
    100.6700	 1480.00	 1499.34	-1930.22	  390.85
    100.7700	 1563.00	 1602.37	-1950.24	  390.69
    100.8700	 1695.00	 1703.85	-1919.73	  390.53
    100.9700	 1754.00	 1800.01	-1956.88	  390.37
    101.0700	 1894.00	 1886.94	-1903.82	  390.21
    101.1700	 1956.00	 1961.34	-1916.21	  390.05
    101.2700	 2126.00	 2020.73	-1805.60	  389.89
    101.3700	 2028.00	 2063.59	-1946.46	  389.74
    101.4700	 2119.00	 2089.04	-1880.92	  389.58
    101.5700	 2123.00	 2096.71	-1884.59	  389.43
    101.6700	 2119.00	 2086.48	-1878.36	  389.28
    101.7700	 2066.00	 2058.70	-1903.57	  389.13
    101.8700	 2069.00	 2014.50	-1856.37	  388.98
    101.9700	 1980.00	 1956.09	-1886.97	  388.83
    102.0700	 1973.00	 1886.71	-1824.59	  388.68
    102.1700	 1877.00	 1810.31	-1844.19	  388.54
    102.2700	 1786.00	 1731.03	-1855.91	  388.40
    102.3700	 1693.00	 1652.66	-1870.54	  388.25
    102.4700	 1616.00	 1578.38	-1873.25	  388.11
    102.5700	 1518.00	 1510.47	-1903.35	  387.97
    102.6700	 1519.00	 1450.43	-1842.30	  387.84
    102.7700	 1451.00	 1398.88	-1858.75	  387.70
    102.8700	 1249.00	 1355.69	-2017.57	  387.57
    102.9700	 1333.00	 1320.10	-1897.98	  387.43
    103.0700	 1229.00	 1290.72	-1972.59	  387.30
    103.1700	 1262.00	 1265.71	-1914.58	  387.17
    103.2700	 1283.00	 1242.96	-1870.84	  387.04
    103.3700	 1228.00	 1220.30	-1903.17	  386.92
    103.4700	 1147.00	 1195.79	-1959.66	  386.79
    103.5700	 1216.00	 1168.01	-1862.88	  386.67
    103.6700	 1142.00	 1136.26	-1905.13	  386.55
    103.7700	 1093.00	 1100.55	-1918.42	  386.43
    103.8700	 1088.00	 1061.46	-1884.33	  386.31
    103.9700	 1008.00	 1019.95	-1922.83	  386.20
    104.0700	  939.00	  977.13	-1949.00	  386.08
    104.1700	  970.00	  934.08	-1874.96	  385.97
    104.2700	  853.00	  891.83	-1949.70	  385.86
    104.3700	  883.00	  851.22	-1879.10	  385.75
    104.4700	  895.00	  812.99	-1828.87	  385.65
    104.5700	  767.00	  777.68	-1921.55	  385.54
    104.6700	  797.00	  745.66	-1859.53	  385.44
    104.7700	  761.00	  717.14	-1867.01	  385.34
    104.8700	  697.00	  692.17	-1906.05	  385.24
    104.9700	  710.00	  670.69	-1871.57	  385.14
    105.0700	  676.00	  652.48	-1887.35	  385.05
    105.1700	  631.00	  637.38	-1917.25	  384.96
    105.2700	  667.00	  625.04	-1868.91	  384.87
    105.3700	  654.00	  615.14	-1872.01	  384.78
    105.4700	  638.00	  607.37	-1880.24	  384.69
    105.5700	  607.00	  601.43	-1905.31	  384.61
    105.6700	  590.00	  597.07	-1917.95	  384.53
    105.7700	  616.00	  594.06	-1888.94	  384.45
    105.8700	  649.00	  592.20	-1854.07	  384.37
    105.9700	  557.00	  591.43	-1945.30	  384.29
    106.0700	  619.00	  591.64	-1883.51	  384.22
    106.1700	  598.00	  592.78	-1905.66	  384.15
    106.2700	  598.00	  594.86	-1907.74	  384.08
    106.3700	  637.00	  597.90	-1871.78	  384.02
    106.4700	  628.00	  601.95	-1884.82	  383.95
    106.5700	  609.00	  607.07	-1908.94	  383.89
    106.6700	  626.00	  613.33	-1898.21	  383.83
    106.7700	  639.00	  620.80	-1892.67	  383.78
    106.8700	  617.00	  629.51	-1923.38	  383.72
    106.9700	  647.00	  639.46	-1903.33	  383.67
    107.0700	  644.00	  650.63	-1917.50	  383.62
    107.1700	  685.00	  662.91	-1888.78	  383.58
    107.2700	  637.00	  676.14	-1950.01	  383.53
    107.3700	  668.00	  690.10	-1932.98	  383.49
    107.4700	  693.00	  704.51	-1922.38	  383.45
    107.5700	  703.00	  719.00	-1926.88	  383.42
    107.6700	  694.00	  733.19	-1950.07	  383.39
    107.7700	  752.00	  746.61	-1905.48	  383.36
    107.8700	  726.00	  758.79	-1943.66	  383.33
    107.9700	  740.00	  769.27	-1940.15	  383.30
    108.0700	  731.00	  777.68	-1957.55	  383.28
    108.1700	  747.00	  783.76	-1947.64	  383.26
    108.2700	  726.00	  787.47	-1972.34	  383.24
    108.3700	  714.00	  788.92	-1985.79	  383.23
    108.4700	  770.00	  788.49	-1929.36	  383.22
    108.5700	  739.00	  786.61	-1958.49	  383.21
    108.6700	  767.00	  783.81	-1927.68	  383.21
    108.7700	  746.00	  780.57	-1945.44	  383.21
    108.8700	  736.00	  777.34	-1952.21	  383.21
    108.9700	  717.00	  774.47	-1968.34	  383.21
    109.0700	  739.00	  772.20	-1944.07	  383.22
    109.1700	  719.00	  770.66	-1962.54	  383.23
    109.2700	  791.00	  769.87	-1889.74	  383.24
    109.3700	  749.00	  769.70	-1931.58	  383.26
    109.4700	  767.00	  769.94	-1913.81	  383.28
    109.5700	  714.00	  770.26	-1967.14	  383.30
    109.6700	  685.00	  770.28	-1996.15	  383.32
    109.7700	  717.00	  769.56	-1963.43	  383.35
    109.8700	  766.00	  767.70	-1912.57	  383.39
    109.9700	  753.00	  764.38	-1922.26	  383.42
    110.0700	  737.00	  759.41	-1933.28	  383.46
    110.1700	  741.00	  752.72	-1922.59	  383.50
    110.2700	  735.00	  744.45	-1920.32	  383.55
    110.3700	  686.00	  734.81	-1959.69	  383.60
    110.4700	  721.00	  724.11	-1913.99	  383.65
    110.5700	  683.00	  712.68	-1940.56	  383.71
    110.6700	  700.00	  700.86	-1911.74	  383.76
    110.7700	  735.00	  688.97	-1864.84	  383.83
    110.8700	  682.00	  677.28	-1906.16	  383.89
    110.9700	  657.00	  666.05	-1919.92	  383.96
    111.0700	  679.00	  655.47	-1887.34	  384.04
    111.1700	  665.00	  645.71	-1891.58	  384.11
    111.2700	  676.00	  636.88	-1871.76	  384.19
    111.3700	  615.00	  629.07	-1924.95	  384.28
    111.4700	  673.00	  622.32	-1860.20	  384.37
    111.5700	  599.00	  616.64	-1928.52	  384.46
    111.6700	  621.00	  612.01	-1901.88	  384.55
    111.7700	  636.00	  608.37	-1883.24	  384.65
    111.8700	  593.00	  605.66	-1923.53	  384.76
    111.9700	  624.00	  603.81	-1890.68	  384.86
    112.0700	  611.00	  602.72	-1902.59	  384.97
    112.1700	  634.00	  602.29	-1879.17	  385.09
    112.2700	  631.00	  602.44	-1882.31	  385.21
    112.3700	  543.00	  603.07	-1970.94	  385.33
    112.4700	  620.00	  604.08	-1894.96	  385.46
    112.5700	  560.00	  605.41	-1956.28	  385.59
    112.6700	  576.00	  606.97	-1941.84	  385.72
    112.7700	  633.00	  608.71	-1886.58	  385.86
    112.8700	  575.00	  610.58	-1946.45	  386.00
    112.9700	  612.00	  612.55	-1911.43	  386.15
    113.0700	  564.00	  614.62	-1961.50	  386.30
    113.1700	  583.00	  616.79	-1944.67	  386.46
    113.2700	  590.00	  619.09	-1939.97	  386.62
    113.3700	  557.00	  621.55	-1975.43	  386.78
    113.4700	  594.00	  624.23	-1941.10	  386.95
    113.5700	  547.00	  627.17	-1991.05	  387.12
    113.6700	  636.00	  630.47	-1905.34	  387.30
    113.7700	  675.00	  634.20	-1870.08	  387.48
    113.8700	  557.00	  638.47	-1992.35	  387.67
    113.9700	  646.00	  643.44	-1908.31	  387.86
    114.0700	  638.00	  649.27	-1922.14	  388.05
    114.1700	  650.00	  656.18	-1917.05	  388.25
    114.2700	  697.00	  664.45	-1878.33	  388.46
    114.3700	  678.00	  674.47	-1907.34	  388.67
    114.4700	  649.00	  686.69	-1948.56	  388.88
    114.5700	  710.00	  701.70	-1902.58	  389.10
    114.6700	  765.00	  720.25	-1866.12	  389.32
    114.7700	  787.00	  743.25	-1867.12	  389.55
    114.8700	  779.00	  771.82	-1903.69	  389.78
    114.9700	  833.00	  807.28	-1885.16	  390.02
    115.0700	  871.00	  851.24	-1891.12	  390.26
    115.1700	  972.00	  905.52	-1844.39	  390.50
    115.2700	 1017.00	  972.17	-1866.04	  390.75
    115.3700	 1069.00	 1053.52	-1895.39	  391.01
    115.4700	 1212.00	 1152.03	-1850.90	  391.27
    115.5700	 1354.00	 1270.34	-1827.21	  391.54
    115.6700	 1500.00	 1411.09	-1821.96	  391.81
    115.7700	 1711.00	 1576.81	-1776.68	  392.09
    115.8700	 1929.00	 1769.93	-1751.80	  392.37
    115.9700	 2164.00	 1992.35	-1739.23	  392.65
    116.0700	 2487.00	 2245.61	-1669.48	  392.95
    116.1700	 2755.00	 2530.36	-1686.24	  393.24
    116.2700	 3064.00	 2846.38	-1693.26	  393.54
    116.3700	 3396.00	 3192.51	-1707.38	  393.85
    116.4700	 3663.00	 3566.17	-1814.05	  394.16
    116.5700	 4110.00	 3963.72	-1764.60	  394.48
    116.6700	 4314.00	 4379.97	-1976.84	  394.81
    116.7700	 4956.00	 4808.35	-1763.22	  395.13
    116.8700	 5121.00	 5241.10	-2030.98	  395.47
    116.9700	 5504.00	 5669.10	-2075.97	  395.81
    117.0700	 5920.00	 6082.26	-2073.14	  396.15
    117.1700	 6500.00	 6469.52	-1880.39	  396.50
    117.2700	 6703.00	 6819.30	-2027.18	  396.86
    117.3700	 6999.00	 7120.18	-2032.05	  397.22
    117.4700	 7367.00	 7361.17	-1905.04	  397.59
    117.5700	 7239.00	 7532.92	-2204.79	  397.96
    117.6700	 7375.00	 7628.33	-2164.20	  398.34
    117.7700	 7279.00	 7643.50	-2275.37	  398.73
    117.8700	 7227.00	 7578.14	-2262.02	  399.12
    117.9700	 7211.00	 7435.68	-2135.55	  399.51
    118.0700	 7106.00	 7222.67	-2027.54	  399.92
    118.1700	 6811.00	 6948.20	-2048.07	  400.32
    118.2700	 6465.00	 6622.95	-2068.82	  400.74
    118.3700	 6213.00	 6258.16	-1956.03	  401.16
    118.4700	 5690.00	 5865.32	-2086.20	  401.58
    118.5700	 5406.00	 5455.23	-1960.10	  402.02
    118.6700	 5098.00	 5038.03	-1850.91	  402.46
    118.7700	 4731.00	 4622.80	-1802.67	  402.90
    118.8700	 4310.00	 4217.18	-1818.06	  403.35
    118.9700	 3905.00	 3827.75	-1833.63	  403.81
    119.0700	 3694.00	 3459.48	-1676.35	  404.27
    119.1700	 3339.00	 3116.19	-1688.06	  404.74
    119.2700	 3092.00	 2800.40	-1619.28	  405.21
    119.3700	 2766.00	 2513.38	-1658.25	  405.70
    119.4700	 2401.00	 2255.55	-1765.43	  406.18
    119.5700	 2234.00	 2026.35	-1703.22	  406.68
    119.6700	 1976.00	 1824.65	-1759.52	  407.18
    119.7700	 1783.00	 1648.80	-1776.67	  407.69
    119.8700	 1682.00	 1496.74	-1725.61	  408.20
    119.9700	 1483.00	 1366.26	-1794.14	  408.72
    120.0700	 1392.00	 1255.01	-1773.88	  409.25
    120.1700	 1354.00	 1160.67	-1717.54	  409.78
    120.2700	 1173.00	 1081.02	-1818.89	  410.32
    120.3700	 1129.00	 1013.96	-1795.83	  410.87
    120.4700	 1016.00	  957.63	-1852.50	  411.43
    120.5700	  970.00	  910.33	-1851.20	  411.99
    120.6700	  930.00	  870.61	-1851.49	  412.56
    120.7700	  900.00	  837.24	-1848.11	  413.13
    120.8700	  784.00	  809.16	-1936.03	  413.71
    120.9700	  797.00	  785.51	-1899.38	  414.30
    121.0700	  801.00	  765.57	-1875.44	  414.90
    121.1700	  763.00	  748.77	-1896.65	  415.50
    121.2700	  707.00	  734.65	-1938.52	  416.11
    121.3700	  737.00	  722.83	-1896.70	  416.73
    121.4700	  698.00	  713.01	-1925.88	  417.35
    121.5700	  721.00	  704.95	-1894.82	  417.98
    121.6700	  663.00	  698.46	-1946.33	  418.62
    121.7700	  724.00	  693.39	-1880.26	  419.27
    121.8700	  691.00	  689.61	-1909.48	  419.92
    121.9700	  707.00	  687.02	-1890.89	  420.58
    122.0700	  691.00	  685.53	-1905.41	  421.25
    122.1700	  641.00	  685.07	-1954.95	  421.92
    122.2700	  583.00	  685.58	-2013.45	  422.61
    122.3700	  655.00	  686.99	-1942.87	  423.30
    122.4700	  664.00	  689.25	-1936.12	  424.00
    122.5700	  660.00	  692.30	-1943.17	  424.70
    122.6700	  653.00	  696.07	-1953.95	  425.41
    122.7700	  653.00	  700.51	-1958.39	  426.14
    122.8700	  692.00	  705.54	-1924.42	  426.86
    122.9700	  678.00	  711.09	-1943.96	  427.60
    123.0700	  700.00	  717.06	-1927.94	  428.35
    123.1700	  734.00	  723.38	-1900.25	  429.10
    123.2700	  693.00	  729.93	-1947.80	  429.86
    123.3700	  712.00	  736.61	-1935.48	  430.63
    123.4700	  730.00	  743.31	-1924.18	  431.40
    123.5700	  728.00	  749.91	-1932.78	  432.19
    123.6700	  739.00	  756.30	-1928.17	  432.98
    123.7700	  764.00	  762.36	-1909.23	  433.78
    123.8700	  742.00	  767.99	-1936.86	  434.59
    123.9700	  763.00	  773.11	-1920.98	  435.41
    124.0700	  761.00	  777.65	-1927.52	  436.23
    124.1700	  768.00	  781.58	-1924.45	  437.07
    124.2700	  726.00	  784.89	-1969.76	  437.91
    124.3700	  796.00	  787.60	-1902.47	  438.76
    124.4700	  766.00	  789.72	-1934.60	  439.62
    124.5700	  757.00	  791.37	-1945.24	  440.48
    124.6700	  771.00	  792.57	-1932.45	  441.36
    124.7700	  784.00	  793.40	-1920.27	  442.24
    124.8700	  764.00	  793.90	-1940.77	  443.14
    124.9700	  771.00	  571.77	-1711.65	  444.04
    125.0700	  744.00	  572.68	-1910.87	  444.95
    125.1700	  781.00	  573.60	-1910.87	  445.87
    125.2700	  701.00	  574.53	-1910.87	  446.80
    125.3700	  751.00	  575.47	-1910.87	  447.73
    125.4700	  702.00	  576.41	-1910.87	  448.68
    125.5700	  711.00	  577.37	-1910.87	  449.63
    125.6700	  709.00	  578.33	-1910.87	  450.60
    125.7700	  702.00	  579.30	-1910.87	  451.57
    125.8700	  699.00	  580.29	-1910.87	  452.55
    125.9700	  694.00	  581.28	-1910.87	  453.54
    126.0700	  715.00	  582.28	-1910.87	  454.54
    126.1700	  659.00	  583.29	-1910.87	  455.55
    126.2700	  699.00	  584.30	-1910.87	  456.57
    126.3700	  685.00	  585.33	-1910.87	  457.60
    126.4700	  640.00	  586.37	-1910.87	  458.63
    126.5700	  717.00	  587.42	-1910.87	  459.68
    126.6700	  644.00	  588.47	-1910.87	  460.74
    126.7700	  689.00	  589.54	-1910.87	  461.80
    126.8700	  638.00	  590.61	-1910.87	  462.88
    126.9700	  655.00	  591.70	-1910.87	  463.96
    127.0700	  678.00	  592.79	-1910.87	  465.06
    127.1700	  659.00	  593.89	-1910.87	  466.16
    127.2700	  639.00	  595.01	-1910.87	  467.27
    127.3700	  621.00	  596.13	-1910.87	  468.40
    127.4700	  665.00	  597.26	-1910.87	  469.53
    127.5700	  653.00	  598.41	-1910.87	  470.67
    127.6700	  634.00	  599.56	-1910.87	  471.83
    127.7700	  632.00	  600.72	-1910.87	  472.99
    127.8700	  665.00	  601.90	-1910.87	  474.16
    127.9700	  635.00	  603.08	-1910.87	  475.34
    128.0700	  621.00	  604.27	-1910.87	  476.54
    128.1700	  648.00	  605.48	-1910.87	  477.74
    128.2700	  673.00	  606.69	-1910.87	  478.95
    128.3700	  645.00	  607.91	-1910.87	  480.18
    128.4700	  658.00	  609.15	-1910.87	  481.41
    128.5700	    0.00	  610.39	-1910.87	  482.66
    128.6700	    0.00	  611.65	-1910.87	  483.91
     12.4125	        	        	        	        	       0	(  0  0  2)	  0  1
     12.4125	        	        	        	        	    -477	(  0  0  2)	  0  1
     25.0706	        	        	        	        	       0	(  0  0  4)	  0  1
     25.0706	        	        	        	        	    -477	(  0  0  4)	  0  1
     28.5264	        	        	        	        	       0	(  1  0  0)	  0  1
     28.5264	        	        	        	        	    -477	(  1  0  0)	  0  1
     29.2280	        	        	        	        	       0	(  1  0  1)	  0  1
     29.2280	        	        	        	        	    -477	(  1  0  1)	  0  1
     31.2471	        	        	        	        	       0	(  1  0  2)	  0  1
     31.2471	        	        	        	        	    -477	(  1  0  2)	  0  1
     34.3755	        	        	        	        	       0	(  1  0  3)	  0  1
     34.3755	        	        	        	        	    -477	(  1  0  3)	  0  1
     38.0505	        	        	        	        	       0	(  0  0  6)	  0  1
     38.0505	        	        	        	        	    -477	(  0  0  6)	  0  1
     38.3787	        	        	        	        	       0	(  1  0  4)	  0  1
     38.3787	        	        	        	        	    -477	(  1  0  4)	  0  1
     43.0598	        	        	        	        	       0	(  1  0  5)	  0  1
     43.0598	        	        	        	        	    -477	(  1  0  5)	  0  1
     48.2796	        	        	        	        	       0	(  1  0  6)	  0  1
     48.2796	        	        	        	        	    -477	(  1  0  6)	  0  1
     50.6013	        	        	        	        	       0	(  1  1  0)	  0  1
     50.6013	        	        	        	        	    -477	(  1  1  0)	  0  1
     51.5630	        	        	        	        	       0	(  0  0  8)	  0  1
     51.5630	        	        	        	        	    -477	(  0  0  8)	  0  1
     52.3369	        	        	        	        	       0	(  1  1  2)	  0  1
     52.3369	        	        	        	        	    -477	(  1  1  2)	  0  1
     53.9503	        	        	        	        	       0	(  1  0  7)	  0  1
     53.9503	        	        	        	        	    -477	(  1  0  7)	  0  1
     57.3219	        	        	        	        	       0	(  1  1  4)	  0  1
     57.3219	        	        	        	        	    -477	(  1  1  4)	  0  1
     59.1581	        	        	        	        	       0	(  2  0  0)	  0  1
     59.1581	        	        	        	        	    -477	(  2  0  0)	  0  1
     59.5528	        	        	        	        	       0	(  2  0  1)	  0  1
     59.5528	        	        	        	        	    -477	(  2  0  1)	  0  1
     60.0260	        	        	        	        	       0	(  1  0  8)	  0  1
     60.0260	        	        	        	        	    -477	(  1  0  8)	  0  1
     60.7274	        	        	        	        	       0	(  2  0  2)	  0  1
     60.7274	        	        	        	        	    -477	(  2  0  2)	  0  1
     62.6559	        	        	        	        	       0	(  2  0  3)	  0  1
     62.6559	        	        	        	        	    -477	(  2  0  3)	  0  1
     65.0774	        	        	        	        	       0	(  1  1  6)	  0  1
     65.0774	        	        	        	        	    -477	(  1  1  6)	  0  1
     65.3014	        	        	        	        	       0	(  2  0  4)	  0  1
     65.3014	        	        	        	        	    -477	(  2  0  4)	  0  1
     65.9003	        	        	        	        	       0	(  0  0 10)	  0  1
     65.9003	        	        	        	        	    -477	(  0  0 10)	  0  1
     66.4936	        	        	        	        	       0	(  1  0  9)	  0  1
     66.4936	        	        	        	        	    -477	(  1  0  9)	  0  1
     68.6233	        	        	        	        	       0	(  2  0  5)	  0  1
     68.6233	        	        	        	        	    -477	(  2  0  5)	  0  1
     72.5852	        	        	        	        	       0	(  2  0  6)	  0  1
     72.5852	        	        	        	        	    -477	(  2  0  6)	  0  1
     73.3684	        	        	        	        	       0	(  1  0 10)	  0  1
     73.3684	        	        	        	        	    -477	(  1  0 10)	  0  1
     75.2024	        	        	        	        	       0	(  1  1  8)	  0  1
     75.2024	        	        	        	        	    -477	(  1  1  8)	  0  1
     77.1611	        	        	        	        	       0	(  2  0  7)	  0  1
     77.1611	        	        	        	        	    -477	(  2  0  7)	  0  1
     80.6944	        	        	        	        	       0	(  1  0 11)	  0  1
     80.6944	        	        	        	        	    -477	(  1  0 11)	  0  1
     81.5203	        	        	        	        	       0	(  0  0 12)	  0  1
     81.5203	        	        	        	        	    -477	(  0  0 12)	  0  1
     81.5854	        	        	        	        	       0	(  2  1  0)	  0  1
     81.5854	        	        	        	        	    -477	(  2  1  0)	  0  1
     81.9287	        	        	        	        	       0	(  2  1  1)	  0  1
     81.9287	        	        	        	        	    -477	(  2  1  1)	  0  1
     82.3419	        	        	        	        	       0	(  2  0  8)	  0  1
     82.3419	        	        	        	        	    -477	(  2  0  8)	  0  1
     82.9570	        	        	        	        	       0	(  2  1  2)	  0  1
     82.9570	        	        	        	        	    -477	(  2  1  2)	  0  1
     84.6660	        	        	        	        	       0	(  2  1  3)	  0  1
     84.6660	        	        	        	        	    -477	(  2  1  3)	  0  1
     87.0512	        	        	        	        	       0	(  2  1  4)	  0  1
     87.0512	        	        	        	        	    -477	(  2  1  4)	  0  1
     87.5975	        	        	        	        	       0	(  1  1 10)	  0  1
     87.5975	        	        	        	        	    -477	(  1  1 10)	  0  1
     88.1412	        	        	        	        	       0	(  2  0  9)	  0  1
     88.1412	        	        	        	        	    -477	(  2  0  9)	  0  1
     88.5507	        	        	        	        	       0	(  1  0 12)	  0  1
     88.5507	        	        	        	        	    -477	(  1  0 12)	  0  1
     90.1111	        	        	        	        	       0	(  2  1  5)	  0  1
     90.1111	        	        	        	        	    -477	(  2  1  5)	  0  1
     93.8526	        	        	        	        	       0	(  2  1  6)	  0  1
     93.8526	        	        	        	        	    -477	(  2  1  6)	  0  1
     94.6040	        	        	        	        	       0	(  2  0 10)	  0  1
     94.6040	        	        	        	        	    -477	(  2  0 10)	  0  1
     95.6252	        	        	        	        	       0	(  3  0  0)	  0  1
     95.6252	        	        	        	        	    -477	(  3  0  0)	  0  1
     95.9669	        	        	        	        	       0	(  3  0  1)	  0  1
     95.9669	        	        	        	        	    -477	(  3  0  1)	  0  1
     96.9932	        	        	        	        	       0	(  3  0  2)	  0  1
     96.9932	        	        	        	        	    -477	(  3  0  2)	  0  1
     97.0658	        	        	        	        	       0	(  1  0 13)	  0  1
     97.0658	        	        	        	        	    -477	(  1  0 13)	  0  1
     98.2976	        	        	        	        	       0	(  2  1  7)	  0  1
     98.2976	        	        	        	        	    -477	(  2  1  7)	  0  1
     98.7090	        	        	        	        	       0	(  3  0  3)	  0  1
     98.7090	        	        	        	        	    -477	(  3  0  3)	  0  1
     99.2644	        	        	        	        	       0	(  0  0 14)	  0  1
     99.2644	        	        	        	        	    -477	(  0  0 14)	  0  1
    101.1250	        	        	        	        	       0	(  3  0  4)	  0  1
    101.1250	        	        	        	        	    -477	(  3  0  4)	  0  1
    101.8214	        	        	        	        	       0	(  2  0 11)	  0  1
    101.8214	        	        	        	        	    -477	(  2  0 11)	  0  1
    102.6569	        	        	        	        	       0	(  1  1 12)	  0  1
    102.6569	        	        	        	        	    -477	(  1  1 12)	  0  1
    103.4925	        	        	        	        	       0	(  2  1  8)	  0  1
    103.4925	        	        	        	        	    -477	(  2  1  8)	  0  1
    104.2619	        	        	        	        	       0	(  3  0  5)	  0  1
    104.2619	        	        	        	        	    -477	(  3  0  5)	  0  1
    106.4524	        	        	        	        	       0	(  1  0 14)	  0  1
    106.4524	        	        	        	        	    -477	(  1  0 14)	  0  1
    108.1577	        	        	        	        	       0	(  3  0  6)	  0  1
    108.1577	        	        	        	        	    -477	(  3  0  6)	  0  1
    109.5241	        	        	        	        	       0	(  2  1  9)	  0  1
    109.5241	        	        	        	        	    -477	(  2  1  9)	  0  1
    109.9593	        	        	        	        	       0	(  2  0 12)	  0  1
    109.9593	        	        	        	        	    -477	(  2  0 12)	  0  1
    112.8793	        	        	        	        	       0	(  3  0  7)	  0  1
    112.8793	        	        	        	        	    -477	(  3  0  7)	  0  1
    116.5503	        	        	        	        	       0	(  2  1 10)	  0  1
    116.5503	        	        	        	        	    -477	(  2  1 10)	  0  1
    117.0873	        	        	        	        	       0	(  1  0 15)	  0  1
    117.0873	        	        	        	        	    -477	(  1  0 15)	  0  1
    117.6939	        	        	        	        	       0	(  2  2  0)	  0  1
    117.6939	        	        	        	        	    -477	(  2  2  0)	  0  1
    118.5442	        	        	        	        	       0	(  3  0  8)	  0  1
    118.5442	        	        	        	        	    -477	(  3  0  8)	  0  1
    119.2418	        	        	        	        	       0	(  2  2  2)	  0  1
    119.2418	        	        	        	        	    -477	(  2  2  2)	  0  1
    119.3245	        	        	        	        	       0	(  2  0 13)	  0  1
    119.3245	        	        	        	        	    -477	(  2  0 13)	  0  1
    121.1381	        	        	        	        	       0	(  0  0 16)	  0  1
    121.1381	        	        	        	        	    -477	(  0  0 16)	  0  1
    121.8544	        	        	        	        	       0	(  1  1 14)	  0  1
    121.8544	        	        	        	        	    -477	(  1  1 14)	  0  1
    124.0383	        	        	        	        	       0	(  2  2  4)	  0  1
    124.0383	        	        	        	        	    -477	(  2  2  4)	  0  1
    124.8667	        	        	        	        	       0	(  2  1 11)	  0  1
    124.8667	        	        	        	        	    -477	(  2  1 11)	  0  1
    125.3645	        	        	        	        	       0	(  3  0  9)	  0  1
    125.3645	        	        	        	        	    -477	(  3  0  9)	  0  1
    125.9483	        	        	        	        	       0	(  3  1  0)	  0  1
    125.9483	        	        	        	        	    -477	(  3  1  0)	  0  1
    126.3698	        	        	        	        	       0	(  3  1  1)	  0  1
    126.3698	        	        	        	        	    -477	(  3  1  1)	  0  1
    127.6481	        	        	        	        	       0	(  3  1  2)	  0  1
    127.6481	        	        	        	        	    -477	(  3  1  2)	  0  1
    129.7491	        	        	        	        	       0	(  1  0 16)	  0  1
    129.7491	        	        	        	        	    -477	(  1  0 16)	  0  1
    129.8297	        	        	        	        	       0	(  3  1  3)	  0  1
    129.8297	        	        	        	        	    -477	(  3  1  3)	  0  1
    130.5485	        	        	        	        	       0	(  2  0 14)	  0  1
    130.5485	        	        	        	        	    -477	(  2  0 14)	  0  1
    132.7292	        	        	        	        	       0	(  2  2  6)	  0  1
    132.7292	        	        	        	        	    -477	(  2  2  6)	  0  1
    133.0071	        	        	        	        	       0	(  3  1  4)	  0  1
    133.0071	        	        	        	        	    -477	(  3  1  4)	  0  1
    133.7593	        	        	        	        	       0	(  3  0 10)	  0  1
    133.7593	        	        	        	        	    -477	(  3  0 10)	  0  1
    135.0954	        	        	        	        	       0	(  2  1 12)	  0  1
    135.0954	        	        	        	        	    -477	(  2  1 12)	  0  1
    137.3547	        	        	        	        	       0	(  3  1  5)	  0  1
    137.3547	        	        	        	        	    -477	(  3  1  5)	  0  1
    143.2197	        	        	        	        	       0	(  3  1  6)	  0  1
    143.2197	        	        	        	        	    -477	(  3  1  6)	  0  1
    144.7290	        	        	        	        	       0	(  3  0 11)	  0  1
    144.7290	        	        	        	        	    -477	(  3  0 11)	  0  1
    145.3279	        	        	        	        	       0	(  2  0 15)	  0  1
    145.3279	        	        	        	        	    -477	(  2  0 15)	  0  1
    146.6709	        	        	        	        	       0	(  1  0 17)	  0  1
    146.6709	        	        	        	        	    -477	(  1  0 17)	  0  1
    147.6660	        	        	        	        	       0	(  2  2  8)	  0  1
    147.6660	        	        	        	        	    -477	(  2  2  8)	  0  1
    148.9686	        	        	        	        	       0	(  2  1 13)	  0  1
    148.9686	        	        	        	        	    -477	(  2  1 13)	  0  1
    151.4315	        	        	        	        	       0	(  3  1  7)	  0  1
    151.4315	        	        	        	        	    -477	(  3  1  7)	  0  1
    152.1637	        	        	        	        	       0	(  1  1 16)	  0  1
    152.1637	        	        	        	        	    -477	(  1  1 16)	  0  1
    157.1044	        	        	        	        	       0	(  0  0 18)	  0  1
    157.1044	        	        	        	        	    -477	(  0  0 18)	  0  1
    162.4221	        	        	        	        	       0	(  3  0 12)	  0  1
    162.4221	        	        	        	        	    -477	(  3  0 12)	  0  1
    162.6377	        	        	        	        	       0	(  4  0  0)	  0  1
    162.6377	        	        	        	        	    -477	(  4  0  0)	  0  1
    163.8221	        	        	        	        	       0	(  4  0  1)	  0  1
    163.8221	        	        	        	        	    -477	(  4  0  1)	  0  1
    165.3726	        	        	        	        	       0	(  3  1  8)	  0  1
    165.3726	        	        	        	        	    -477	(  3  1  8)	  0  1
    168.0456	        	        	        	        	       0	(  4  0  2)	  0  1
    168.0456	        	        	        	        	    -477	(  4  0  2)	  0  1
