MSG Master    CELL:    5.87992   5.87992  23.10008   90.0000   90.0000  120.0000   SPGR: P 63/m m c             TEMP:    521.85
  2   1280     2.52000     0.00000    -0.08925     0.00000     0.00000    0
    96    96     0     0     2
       0.00000      10.00000
     125.00000     130.00000
 2Theta	Yobs	Ycal	Yobs-Ycal	Backg	Posr	(hkl)	K
      0.7700	    0.00	  930.41	-2014.75	  795.61
      0.8700	    0.00	  927.55	-2014.75	  792.74
      0.9700	   53.00	  924.70	-2014.75	  789.89
      1.0700	   44.00	  921.86	-2014.75	  787.06
      1.1700	   39.00	  919.05	-2014.75	  784.24
      1.2700	   49.00	  916.25	-2014.75	  781.44
      1.3700	   44.00	  913.46	-2014.75	  778.66
      1.4700	  105.00	  910.70	-2014.75	  775.90
      1.5700	  302.00	  907.95	-2014.75	  773.15
      1.6700	  440.00	  905.22	-2014.75	  770.41
      1.7700	  576.00	  902.50	-2014.75	  767.70
      1.8700	  674.00	  899.80	-2014.75	  765.00
      1.9700	  747.00	  897.12	-2014.75	  762.32
      2.0700	  718.00	  894.45	-2014.75	  759.65
      2.1700	  775.00	  891.80	-2014.75	  757.00
      2.2700	  762.00	  889.17	-2014.75	  754.36
      2.3700	  759.00	  886.55	-2014.75	  751.75
      2.4700	  723.00	  883.95	-2014.75	  749.14
      2.5700	  689.00	  881.36	-2014.75	  746.56
      2.6700	  639.00	  878.79	-2014.75	  743.99
      2.7700	  662.00	  876.24	-2014.75	  741.43
      2.8700	  645.00	  873.70	-2014.75	  738.90
      2.9700	  602.00	  871.18	-2014.75	  736.37
      3.0700	  637.00	  868.67	-2014.75	  733.87
      3.1700	  646.00	  866.18	-2014.75	  731.38
      3.2700	  727.00	  863.70	-2014.75	  728.90
      3.3700	  884.00	  861.24	-2014.75	  726.44
      3.4700	 1060.00	  858.80	-2014.75	  724.00
      3.5700	 1183.00	  856.37	-2014.75	  721.57
      3.6700	 1342.00	  853.96	-2014.75	  719.15
      3.7700	 1470.00	  851.56	-2014.75	  716.75
      3.8700	 1448.00	  849.17	-2014.75	  714.37
      3.9700	 1561.00	  846.81	-2014.75	  712.00
      4.0700	 1717.00	  844.45	-2014.75	  709.65
      4.1700	 1678.00	  842.12	-2014.75	  707.31
      4.2700	 1687.00	  839.79	-2014.75	  704.99
      4.3700	 1718.00	  837.48	-2014.75	  702.68
      4.4700	 1597.00	  835.19	-2014.75	  700.39
      4.5700	 1508.00	  832.91	-2014.75	  698.11
      4.6700	 1430.00	  830.65	-2014.75	  695.84
      4.7700	 1467.00	  828.40	-2014.75	  693.59
      4.8700	 1405.00	  826.16	-2014.75	  691.36
      4.9700	 1399.00	  823.94	-2014.75	  689.14
      5.0700	 1318.00	  821.74	-2014.75	  686.93
      5.1700	 1299.00	  819.55	-2014.75	  684.74
      5.2700	 1292.00	  817.37	-2014.75	  682.56
      5.3700	 1271.00	  815.20	-2014.75	  680.40
      5.4700	 1176.00	  813.06	-2014.75	  678.25
      5.5700	 1202.00	  810.92	-2014.75	  676.12
      5.6700	 1168.00	  808.80	-2014.75	  674.00
      5.7700	 1177.00	  806.69	-2014.75	  671.89
      5.8700	 1153.00	  804.60	-2014.75	  669.80
      5.9700	 1124.00	  802.52	-2014.75	  667.72
      6.0700	 1061.00	  800.46	-2014.75	  665.65
      6.1700	 1081.00	  798.41	-2014.75	  663.60
      6.2700	 1022.00	  796.37	-2014.75	  661.57
      6.3700	 1026.00	  794.35	-2014.75	  659.54
      6.4700	 1047.00	  792.34	-2014.75	  657.53
      6.5700	  945.00	  790.34	-2014.75	  655.54
      6.6700	  976.00	  788.36	-2014.75	  653.55
      6.7700	  896.00	  786.39	-2014.75	  651.58
      6.8700	  896.00	  784.43	-2014.75	  649.63
      6.9700	  884.00	  782.49	-2014.75	  647.68
      7.0700	  932.00	  780.56	-2014.75	  645.75
      7.1700	  875.00	  778.64	-2014.75	  643.84
      7.2700	  842.00	  776.74	-2014.75	  641.93
      7.3700	  831.00	  774.85	-2014.75	  640.04
      7.4700	  888.00	  772.97	-2014.75	  638.17
      7.5700	  841.00	  771.11	-2014.75	  636.30
      7.6700	  842.00	  769.26	-2014.75	  634.45
      7.7700	  872.00	  767.42	-2014.75	  632.61
      7.8700	  769.00	  765.59	-2014.75	  630.79
      7.9700	  816.00	  763.78	-2014.75	  628.97
      8.0700	  783.00	  761.98	-2014.75	  627.17
      8.1700	  776.00	  760.19	-2014.75	  625.39
      8.2700	  789.00	  758.41	-2014.75	  623.61
      8.3700	  746.00	  756.65	-2014.75	  621.85
      8.4700	  745.00	  754.90	-2014.75	  620.10
      8.5700	  767.00	  753.16	-2014.75	  618.36
      8.6700	  810.00	  751.44	-2014.75	  616.63
      8.7700	  755.00	  749.72	-2014.75	  614.92
      8.8700	  765.00	  748.02	-2014.75	  613.22
      8.9700	  744.00	  746.34	-2014.75	  611.53
      9.0700	  719.00	  744.66	-2014.75	  609.85
      9.1700	  741.00	  742.99	-2014.75	  608.19
      9.2700	  768.00	  741.34	-2014.75	  606.54
      9.3700	  771.00	  739.70	-2014.75	  604.90
      9.4700	  774.00	  738.07	-2014.75	  603.27
      9.5700	  700.00	  736.45	-2014.75	  601.65
      9.6700	  776.00	  734.85	-2014.75	  600.05
      9.7700	  683.00	  733.26	-2014.75	  598.45
      9.8700	  735.00	  731.67	-2014.75	  596.87
      9.9700	  744.00	  730.10	-2014.75	  595.30
     10.0700	  743.00	  730.72	-2002.47	  593.74
     10.1700	  750.00	  729.41	-1994.16	  592.19
     10.2700	  749.00	  728.16	-1993.91	  590.66
     10.3700	  689.00	  726.98	-2052.73	  589.13
     10.4700	  749.00	  725.89	-1991.64	  587.62
     10.5700	  699.00	  724.95	-2040.70	  586.12
     10.6700	  708.00	  724.21	-2030.96	  584.63
     10.7700	  761.00	  723.75	-1977.50	  583.15
     10.8700	  726.00	  723.68	-2012.43	  581.68
     10.9700	  769.00	  724.06	-1969.81	  580.22
     11.0700	  706.00	  724.97	-2033.72	  578.78
     11.1700	  734.00	  726.41	-2007.16	  577.34
     11.2700	  750.00	  728.41	-1993.16	  575.92
     11.3700	  677.00	  731.02	-2068.77	  574.51
     11.4700	  783.00	  734.32	-1966.07	  573.10
     11.5700	  731.00	  738.48	-2022.23	  571.71
     11.6700	  798.00	  743.71	-1960.46	  570.33
     11.7700	  789.00	  750.31	-1976.06	  568.96
     11.8700	  813.00	  758.54	-1960.29	  567.60
     11.9700	  783.00	  768.46	-2000.21	  566.25
     12.0700	  843.00	  779.48	-1951.23	  564.91
     12.1700	  851.00	  789.86	-1953.61	  563.59
     12.2700	  840.00	  796.20	-1970.95	  562.27
     12.3700	  829.00	  793.72	-1979.47	  560.96
     12.4700	  808.00	  779.95	-1986.70	  559.66
     12.5700	  725.00	  759.41	-2049.16	  558.38
     12.6700	  773.00	  739.40	-1981.15	  557.10
     12.7700	  679.00	  723.51	-2059.26	  555.83
     12.8700	  727.00	  712.13	-1999.88	  554.58
     12.9700	  638.00	  704.34	-2081.09	  553.33
     13.0700	  675.00	  698.98	-2038.73	  552.09
     13.1700	  673.00	  695.12	-2036.87	  550.87
     13.2700	  693.00	  692.13	-2013.88	  549.65
     13.3700	  659.00	  689.65	-2045.40	  548.45
     13.4700	  679.00	  687.49	-2023.24	  547.25
     13.5700	  685.00	  685.55	-2015.30	  546.06
     13.6700	  665.00	  683.77	-2033.52	  544.88
     13.7700	  645.00	  682.12	-2051.87	  543.72
     13.8700	  678.00	  680.55	-2017.30	  542.56
     13.9700	  702.00	  679.07	-1991.82	  541.41
     14.0700	  695.00	  677.65	-1997.40	  540.27
     14.1700	  676.00	  676.28	-2015.03	  539.14
     14.2700	  693.00	  674.95	-1996.70	  538.02
     14.3700	  646.00	  673.66	-2042.41	  536.91
     14.4700	  698.00	  672.41	-1989.16	  535.81
     14.5700	  644.00	  671.18	-2041.93	  534.72
     14.6700	  646.00	  669.98	-2038.73	  533.63
     14.7700	  713.00	  668.80	-1970.55	  532.56
     14.8700	  680.00	  667.64	-2002.39	  531.50
     14.9700	  621.00	  666.50	-2060.25	  530.44
     15.0700	  678.00	  665.38	-2002.13	  529.39
     15.1700	  603.00	  664.28	-2076.03	  528.36
     15.2700	  620.00	  663.19	-2057.94	  527.33
     15.3700	  666.00	  662.12	-2010.87	  526.31
     15.4700	  689.00	  661.06	-1986.81	  525.30
     15.5700	  614.00	  660.01	-2060.76	  524.29
     15.6700	  700.00	  658.97	-1973.72	  523.30
     15.7700	  664.00	  657.95	-2008.70	  522.32
     15.8700	  631.00	  656.94	-2040.69	  521.34
     15.9700	  661.00	  655.94	-2009.69	  520.37
     16.0700	  637.00	  654.96	-2032.71	  519.41
     16.1700	  634.00	  653.98	-2034.73	  518.46
     16.2700	  659.00	  653.01	-2008.76	  517.52
     16.3700	  647.00	  652.06	-2019.81	  516.59
     16.4700	  646.00	  651.11	-2019.86	  515.66
     16.5700	  671.00	  650.17	-1993.92	  514.75
     16.6700	  700.00	  649.25	-1964.00	  513.84
     16.7700	  593.00	  648.33	-2070.08	  512.94
     16.8700	  642.00	  647.42	-2020.17	  512.05
     16.9700	  649.00	  646.53	-2012.28	  511.16
     17.0700	  603.00	  645.64	-2057.39	  510.29
     17.1700	  656.00	  644.76	-2003.51	  509.42
     17.2700	  620.00	  643.89	-2038.64	  508.56
     17.3700	  618.00	  643.03	-2039.78	  507.71
     17.4700	  567.00	  642.17	-2089.92	  506.86
     17.5700	  612.00	  641.33	-2044.08	  506.03
     17.6700	  677.00	  640.49	-1978.24	  505.20
     17.7700	  617.00	  639.66	-2037.41	  504.38
     17.8700	  677.00	  638.84	-1976.59	  503.57
     17.9700	  641.00	  638.03	-2011.78	  502.76
     18.0700	  638.00	  637.23	-2013.98	  501.97
     18.1700	  633.00	  636.44	-2018.19	  501.18
     18.2700	  637.00	  635.65	-2013.40	  500.40
     18.3700	  623.00	  634.87	-2026.62	  499.62
     18.4700	  657.00	  634.10	-1991.85	  498.86
     18.5700	  647.00	  633.34	-2001.09	  498.10
     18.6700	  614.00	  632.58	-2033.33	  497.34
     18.7700	  632.00	  631.84	-2014.59	  496.60
     18.8700	  632.00	  631.10	-2013.85	  495.86
     18.9700	  645.00	  630.37	-2000.12	  495.13
     19.0700	  629.00	  630.77	-2016.52	  494.41
     19.1700	  627.00	  631.98	-2019.73	  493.70
     19.2700	  623.00	  631.33	-2023.08	  492.99
     19.3700	  661.00	  630.70	-1984.45	  492.29
     19.4700	  627.00	  630.08	-2017.83	  491.59
     19.5700	  640.00	  629.46	-2004.21	  490.90
     19.6700	  630.00	  628.86	-2013.61	  490.22
     19.7700	  605.00	  628.26	-2038.01	  489.55
     19.8700	  627.00	  627.68	-2015.43	  488.89
     19.9700	  644.00	  627.10	-1997.85	  488.23
     20.0700	  582.00	  626.54	-2059.29	  487.57
     20.1700	  598.00	  626.03	-2042.78	  486.93
     20.2700	  635.00	  625.49	-2005.24	  486.29
     20.3700	  586.00	  624.96	-2053.71	  485.66
     20.4700	  598.00	  624.44	-2041.19	  485.03
     20.5700	  620.00	  623.93	-2018.68	  484.41
     20.6700	  638.00	  623.43	-2000.18	  483.80
     20.7700	  581.00	  622.95	-2056.70	  483.20
     20.8700	  615.00	  622.47	-2022.22	  482.60
     20.9700	  646.00	  622.01	-1990.76	  482.00
     21.0700	  636.00	  621.56	-2000.31	  481.42
     21.1700	  644.00	  621.12	-1991.87	  480.84
     21.2700	  608.00	  620.69	-2027.44	  480.26
     21.3700	  639.00	  620.28	-1996.03	  479.70
     21.4700	  630.00	  619.88	-2004.63	  479.14
     21.5700	  657.00	  619.50	-1977.25	  478.58
     21.6700	  596.00	  619.13	-2037.88	  478.03
     21.7700	  616.00	  618.77	-2017.52	  477.49
     21.8700	  610.00	  618.43	-2023.18	  476.95
     21.9700	  638.00	  618.11	-1994.86	  476.42
     22.0700	  666.00	  617.81	-1966.56	  475.90
     22.1700	  606.00	  617.52	-2026.27	  475.38
     22.2700	  621.00	  617.26	-2011.01	  474.87
     22.3700	  635.00	  617.21	-1996.96	  474.36
     22.4700	  647.00	  616.99	-1984.74	  473.86
     22.5700	  651.00	  616.79	-1980.54	  473.37
     22.6700	  643.00	  616.62	-1988.37	  472.88
     22.7700	  604.00	  616.48	-2027.23	  472.40
     22.8700	  627.00	  616.36	-2004.11	  471.92
     22.9700	  630.00	  616.28	-2001.03	  471.45
     23.0700	  629.00	  616.24	-2001.99	  470.98
     23.1700	  613.00	  616.24	-2017.99	  470.52
     23.2700	  598.00	  616.29	-2033.04	  470.07
     23.3700	  605.00	  616.39	-2026.14	  469.62
     23.4700	  653.00	  616.55	-1978.30	  469.18
     23.5700	  623.00	  616.80	-2008.55	  468.74
     23.6700	  622.00	  617.13	-2009.88	  468.31
     23.7700	  617.00	  617.59	-2015.34	  467.88
     23.8700	  607.00	  618.22	-2025.97	  467.46
     23.9700	  663.00	  619.08	-1970.83	  467.04
     24.0700	  630.00	  620.28	-2005.03	  466.63
     24.1700	  624.00	  622.03	-2012.78	  466.22
     24.2700	  584.00	  624.59	-2055.34	  465.82
     24.3700	  639.00	  628.35	-2004.10	  465.43
     24.4700	  592.00	  633.67	-2056.42	  465.04
     24.5700	  659.00	  640.96	-1996.71	  464.65
     24.6700	  668.00	  650.14	-1996.89	  464.27
     24.7700	  685.00	  660.61	-1990.36	  463.90
     24.8700	  698.00	  670.88	-1987.63	  463.53
     24.9700	  718.00	  678.25	-1975.00	  463.16
     25.0700	  745.00	  679.33	-1949.08	  462.80
     25.1700	  701.00	  672.91	-1986.66	  462.45
     25.2700	  706.00	  662.29	-1971.04	  462.10
     25.3700	  687.00	  652.04	-1979.79	  461.75
     25.4700	  632.00	  644.24	-2026.99	  461.41
     25.5700	  642.00	  639.29	-2012.04	  461.08
     25.6700	  678.00	  636.73	-1973.48	  460.75
     25.7700	  623.00	  635.93	-2027.68	  460.42
     25.8700	  642.00	  636.34	-2009.09	  460.10
     25.9700	  640.00	  637.60	-2012.35	  459.78
     26.0700	  619.00	  639.51	-2035.26	  459.47
     26.1700	  664.00	  642.01	-1992.76	  459.16
     26.2700	  633.00	  645.08	-2026.83	  458.86
     26.3700	  647.00	  648.78	-2016.53	  458.56
     26.4700	  615.00	  653.19	-2052.94	  458.27
     26.5700	  639.00	  658.41	-2034.16	  457.98
     26.6700	  647.00	  664.60	-2032.35	  457.69
     26.7700	  684.00	  671.96	-2002.71	  457.41
     26.8700	  689.00	  680.78	-2006.53	  457.13
     26.9700	  701.00	  691.41	-2005.16	  456.86
     27.0700	  683.00	  704.37	-2036.12	  456.59
     27.1700	  684.00	  720.35	-2051.10	  456.33
     27.2700	  718.00	  740.39	-2037.14	  456.07
     27.3700	  663.00	  766.13	-2117.88	  455.81
     27.4700	  768.00	  800.63	-2047.38	  455.56
     27.5700	  757.00	  850.44	-2108.19	  455.32
     27.6700	  828.00	  930.05	-2116.80	  455.07
     27.7700	  942.00	 1069.13	-2141.88	  454.83
     27.8700	 1025.00	 1321.01	-2310.76	  454.60
     27.9700	 1276.00	 1766.98	-2505.73	  454.37
     28.0700	 2046.00	 2503.43	-2472.18	  454.14
     28.1700	 3161.00	 3596.09	-2449.84	  453.92
     28.2700	 5230.00	 4988.56	-1773.31	  453.70
     28.3700	 7085.00	 6381.91	-1311.66	  453.48
     28.4700	 8059.00	 7199.22	-1154.97	  453.27
     28.5700	 7472.00	 6875.85	-1418.60	  453.06
     28.6700	 5810.00	 5631.50	-1836.25	  452.86
     28.7700	 4035.00	 4388.76	-2368.51	  452.66
     28.8700	 3401.00	 3733.76	-2347.51	  452.46
     28.9700	 3631.00	 3706.76	-2090.51	  452.27
     29.0700	 4287.00	 4010.97	-1738.72	  452.08
     29.1700	 4542.00	 4208.46	-1681.21	  451.90
     29.2700	 4172.00	 3926.99	-1769.74	  451.72
     29.3700	 3104.00	 3185.58	-2096.33	  451.54
     29.4700	 2226.00	 2353.61	-2142.36	  451.36
     29.5700	 1473.00	 1695.81	-2237.56	  451.19
     29.6700	 1239.00	 1271.23	-2046.98	  451.02
     29.7700	 1026.00	 1031.80	-2020.55	  450.86
     29.8700	  868.00	  904.27	-2051.02	  450.70
     29.9700	  819.00	  833.21	-2028.96	  450.54
     30.0700	  790.00	  788.65	-2013.40	  450.39
     30.1700	  776.00	  757.51	-1996.26	  450.24
     30.2700	  775.00	  734.45	-1974.20	  450.09
     30.3700	  715.00	  717.25	-2017.00	  449.95
     30.4700	  700.00	  705.06	-2019.81	  449.81
     30.5700	  685.00	  697.94	-2027.69	  449.67
     30.6700	  699.00	  696.74	-2012.49	  449.53
     30.7700	  710.00	  702.71	-2007.46	  449.40
     30.8700	  690.00	  716.46	-2041.21	  449.27
     30.9700	  744.00	  736.40	-2007.15	  449.15
     31.0700	  755.00	  757.39	-2017.14	  449.03
     31.1700	  780.00	  770.29	-2005.04	  448.91
     31.2700	  764.00	  764.74	-2015.49	  448.79
     31.3700	  744.00	  739.33	-2010.08	  448.68
     31.4700	  699.00	  705.89	-2021.64	  448.57
     31.5700	  728.00	  676.02	-1962.77	  448.46
     31.6700	  688.00	  654.11	-1980.86	  448.36
     31.7700	  654.00	  639.88	-2000.63	  448.26
     31.8700	  689.00	  631.19	-1956.94	  448.16
     31.9700	  670.00	  625.83	-1970.58	  448.06
     32.0700	  665.00	  622.28	-1972.03	  447.97
     32.1700	  642.00	  619.74	-1992.49	  447.88
     32.2700	  606.00	  617.82	-2026.57	  447.79
     32.3700	  637.00	  616.36	-1994.11	  447.71
     32.4700	  687.00	  615.29	-1943.04	  447.63
     32.5700	  663.00	  614.58	-1966.33	  447.55
     32.6700	  647.00	  614.21	-1981.96	  447.47
     32.7700	  661.00	  614.22	-1967.97	  447.40
     32.8700	  664.00	  614.60	-1965.35	  447.33
     32.9700	  676.00	  615.42	-1954.17	  447.26
     33.0700	  627.00	  616.78	-2004.53	  447.19
     33.1700	  700.00	  618.84	-1933.59	  447.13
     33.2700	  638.00	  621.86	-1998.61	  447.07
     33.3700	  692.00	  626.38	-1949.13	  447.01
     33.4700	  641.00	  633.41	-2007.16	  446.95
     33.5700	  652.00	  644.92	-2007.67	  446.90
     33.6700	  683.00	  664.40	-1996.15	  446.85
     33.7700	  682.00	  697.14	-2029.89	  446.80
     33.8700	  756.00	  749.54	-2008.29	  446.75
     33.9700	  881.00	  826.32	-1960.07	  446.71
     34.0700	  950.00	  925.36	-1990.11	  446.67
     34.1700	 1187.00	 1032.22	-1859.97	  446.63
     34.2700	 1186.00	 1117.74	-1946.49	  446.59
     34.3700	 1233.00	 1143.45	-1925.20	  446.56
     34.4700	 1240.00	 1089.00	-1863.75	  446.52
     34.5700	 1025.00	  981.52	-1971.27	  446.49
     34.6700	  841.00	  867.62	-2041.37	  446.46
     34.7700	  836.00	  774.60	-1953.35	  446.44
     34.8700	  721.00	  709.41	-2003.16	  446.41
     34.9700	  724.00	  668.35	-1959.10	  446.39
     35.0700	  657.00	  644.12	-2001.87	  446.37
     35.1700	  667.00	  629.92	-1977.67	  446.35
     35.2700	  666.00	  621.15	-1969.90	  446.34
     35.3700	  677.00	  615.24	-1952.99	  446.32
     35.4700	  634.00	  610.94	-1991.69	  446.31
     35.5700	  635.00	  607.64	-1987.39	  446.30
     35.6700	  611.00	  605.03	-2008.78	  446.29
     35.7700	  576.00	  602.94	-2041.69	  446.28
     35.8700	  642.00	  601.25	-1974.00	  446.28
     35.9700	  594.00	  599.87	-2020.62	  446.28
     36.0700	  615.00	  598.75	-1998.50	  446.28
     36.1700	  609.00	  597.85	-2003.60	  446.28
     36.2700	  654.00	  597.13	-1957.88	  446.28
     36.3700	  646.00	  596.57	-1965.32	  446.28
     36.4700	  569.00	  596.17	-2041.92	  446.29
     36.5700	  599.00	  595.91	-2011.66	  446.30
     36.6700	  634.00	  595.80	-1976.55	  446.31
     36.7700	  596.00	  595.84	-2014.59	  446.32
     36.8700	  619.00	  596.10	-1991.85	  446.33
     36.9700	  570.00	  596.72	-2041.47	  446.35
     37.0700	  588.00	  597.39	-2024.14	  446.36
     37.1700	  641.00	  598.41	-1972.16	  446.38
     37.2700	  609.00	  600.42	-2006.17	  446.40
     37.3700	  636.00	  602.72	-1981.47	  446.42
     37.4700	  614.00	  606.25	-2007.00	  446.44
     37.5700	  627.00	  611.74	-1999.49	  446.47
     37.6700	  608.00	  620.38	-2027.13	  446.49
     37.7700	  605.00	  633.63	-2043.38	  446.52
     37.8700	  651.00	  652.97	-2016.72	  446.55
     37.9700	  653.00	  679.08	-2040.83	  446.58
     38.0700	  698.00	  708.89	-2025.64	  446.61
     38.1700	  707.00	  741.72	-2049.47	  446.64
     38.2700	  749.00	  767.92	-2033.67	  446.67
     38.3700	  694.00	  777.15	-2097.90	  446.71
     38.4700	  721.00	  762.92	-2056.67	  446.74
     38.5700	  682.00	  730.95	-2063.70	  446.78
     38.6700	  691.00	  694.13	-2017.88	  446.82
     38.7700	  671.00	  661.71	-2005.46	  446.86
     38.8700	  659.00	  637.16	-1992.91	  446.90
     38.9700	  575.00	  620.44	-2060.19	  446.94
     39.0700	  565.00	  609.87	-2059.62	  446.99
     39.1700	  576.00	  603.45	-2042.20	  447.03
     39.2700	  627.00	  599.51	-1987.26	  447.08
     39.3700	  616.00	  596.96	-1995.71	  447.13
     39.4700	  568.00	  595.19	-2041.94	  447.17
     39.5700	  596.00	  592.83	-2011.58	  447.22
     39.6700	  597.00	  591.84	-2009.59	  447.27
     39.7700	  633.00	  591.07	-1972.82	  447.33
     39.8700	  597.00	  590.46	-2008.21	  447.38
     39.9700	  563.00	  589.98	-2041.73	  447.43
     40.0700	  588.00	  589.60	-2016.35	  447.49
     40.1700	  568.00	  589.30	-2036.05	  447.54
     40.2700	  602.00	  589.08	-2001.83	  447.60
     40.3700	  611.00	  588.91	-1992.66	  447.66
     40.4700	  577.00	  588.80	-2026.55	  447.72
     40.5700	  608.00	  588.73	-1995.48	  447.77
     40.6700	  581.00	  588.70	-2022.45	  447.84
     40.7700	  591.00	  589.25	-2013.00	  447.90
     40.8700	  593.00	  589.31	-2011.06	  447.96
     40.9700	  603.00	  589.42	-2001.17	  448.02
     41.0700	  565.00	  589.56	-2039.31	  448.08
     41.1700	  589.00	  589.75	-2015.50	  448.15
     41.2700	  583.00	  590.05	-2021.80	  448.21
     41.3700	  601.00	  590.34	-2004.09	  448.28
     41.4700	  577.00	  590.70	-2028.45	  448.35
     41.5700	  570.00	  591.14	-2035.89	  448.42
     41.6700	  593.00	  591.68	-2013.43	  448.48
     41.7700	  596.00	  592.34	-2011.09	  448.55
     41.8700	  614.00	  593.17	-1993.92	  448.62
     41.9700	  595.00	  594.27	-2014.02	  448.69
     42.0700	  600.00	  595.78	-2010.53	  448.76
     42.1700	  607.00	  598.01	-2005.76	  448.83
     42.2700	  602.00	  601.45	-2014.20	  448.91
     42.3700	  581.00	  606.87	-2040.62	  448.98
     42.4700	  640.00	  615.20	-1989.95	  449.05
     42.5700	  553.00	  627.49	-2089.24	  449.13
     42.6700	  639.00	  644.20	-2019.95	  449.20
     42.7700	  610.00	  664.65	-2069.40	  449.28
     42.8700	  659.00	  686.18	-2041.93	  449.35
     42.9700	  652.00	  703.66	-2066.41	  449.43
     43.0700	  669.00	  710.62	-2056.37	  449.50
     43.1700	  692.00	  703.48	-2026.23	  449.58
     43.2700	  679.00	  685.48	-2021.23	  449.66
     43.3700	  637.00	  663.64	-2041.39	  449.74
     43.4700	  644.00	  643.37	-2014.12	  449.82
     43.5700	  619.00	  627.28	-2023.03	  449.89
     43.6700	  598.00	  615.57	-2032.32	  449.97
     43.7700	  573.00	  607.78	-2049.53	  450.05
     43.8700	  618.00	  602.88	-1999.63	  450.13
     43.9700	  608.00	  599.88	-2006.63	  450.21
     44.0700	  585.00	  598.22	-2027.97	  450.29
     44.1700	  619.00	  597.02	-1992.77	  450.37
     44.2700	  596.00	  596.22	-2014.97	  450.46
     44.3700	  597.00	  595.65	-2013.40	  450.54
     44.4700	  600.00	  595.25	-2010.00	  450.62
     44.5700	  600.00	  594.96	-2009.71	  450.70
     44.6700	  595.00	  594.77	-2014.52	  450.78
     44.7700	  603.00	  594.65	-2006.40	  450.87
     44.8700	  618.00	  594.60	-1991.35	  450.95
     44.9700	  616.00	  594.61	-1993.36	  451.03
     45.0700	  619.00	  594.90	-1990.65	  451.11
     45.1700	  626.00	  594.98	-1983.73	  451.20
     45.2700	  616.00	  595.10	-1993.85	  451.28
     45.3700	  593.00	  595.26	-2017.01	  451.37
     45.4700	  561.00	  595.44	-2049.19	  451.45
     45.5700	  606.00	  595.66	-2004.41	  451.53
     45.6700	  587.00	  595.91	-2023.66	  451.62
     45.7700	  575.00	  596.28	-2036.03	  451.70
     45.8700	  573.00	  596.58	-2038.33	  451.78
     45.9700	  622.00	  596.93	-1989.68	  451.87
     46.0700	  604.00	  597.30	-2008.05	  451.95
     46.1700	  604.00	  597.71	-2008.46	  452.04
     46.2700	  619.00	  598.17	-1993.92	  452.12
     46.3700	  617.00	  598.67	-1996.42	  452.21
     46.4700	  613.00	  599.02	-2000.77	  452.29
     46.5700	  581.00	  599.63	-2033.38	  452.38
     46.6700	  595.00	  600.45	-2020.20	  452.46
     46.7700	  633.00	  601.21	-1982.96	  452.54
     46.8700	  587.00	  602.08	-2029.83	  452.63
     46.9700	  659.00	  603.07	-1958.82	  452.71
     47.0700	  606.00	  604.23	-2012.98	  452.80
     47.1700	  569.00	  605.66	-2051.41	  452.88
     47.2700	  548.00	  607.45	-2074.20	  452.96
     47.3700	  626.00	  609.87	-1998.62	  453.05
     47.4700	  605.00	  613.28	-2023.03	  453.13
     47.5700	  590.00	  618.23	-2042.98	  453.21
     47.6700	  662.00	  625.34	-1978.09	  453.30
     47.7700	  618.00	  635.22	-2031.97	  453.38
     47.8700	  609.00	  648.17	-2053.92	  453.46
     47.9700	  670.00	  663.82	-2008.57	  453.55
     48.0700	  640.00	  680.74	-2055.49	  453.63
     48.1700	  693.00	  695.98	-2017.73	  453.71
     48.2700	  718.00	  705.43	-2002.18	  453.80
     48.3700	  677.00	  705.82	-2043.57	  453.88
     48.4700	  691.00	  697.63	-2021.38	  453.96
     48.5700	  680.00	  684.75	-2019.50	  454.04
     48.6700	  667.00	  671.80	-2019.55	  454.12
     48.7700	  638.00	  660.55	-2037.30	  454.20
     48.8700	  650.00	  652.58	-2017.33	  454.28
     48.9700	  647.00	  648.13	-2015.88	  454.36
     49.0700	  630.00	  646.89	-2031.64	  454.44
     49.1700	  645.00	  648.42	-2018.17	  454.52
     49.2700	  638.00	  652.34	-2029.09	  454.60
     49.3700	  629.00	  658.57	-2044.32	  454.68
     49.4700	  676.00	  667.56	-2006.31	  454.76
     49.5700	  651.00	  680.77	-2044.52	  454.84
     49.6700	  675.00	  701.77	-2041.52	  454.92
     49.7700	  767.00	  738.34	-1986.09	  455.00
     49.8700	  785.00	  805.19	-2034.94	  455.07
     49.9700	  963.00	  925.87	-1977.62	  455.15
     50.0700	 1167.00	 1130.32	-1978.07	  455.23
     50.1700	 1527.00	 1444.29	-1932.04	  455.30
     50.2700	 1953.00	 1870.88	-1932.63	  455.38
     50.3700	 2552.00	 2368.86	-1831.61	  455.45
     50.4700	 2972.00	 2839.48	-1882.23	  455.53
     50.5700	 3140.00	 3137.42	-2012.17	  455.60
     50.6700	 3070.00	 3136.29	-2081.04	  455.68
     50.7700	 2651.00	 2833.93	-2197.68	  455.75
     50.8700	 2290.00	 2360.05	-2084.80	  455.82
     50.9700	 1795.00	 1865.18	-2084.93	  455.90
     51.0700	 1302.00	 1446.92	-2159.67	  455.97
     51.1700	 1069.00	 1144.80	-2090.55	  456.04
     51.2700	  932.00	  953.80	-2036.55	  456.11
     51.3700	  840.00	  846.29	-2021.04	  456.18
     51.4700	  802.00	  790.47	-2003.22	  456.25
     51.5700	  756.00	  760.91	-2019.66	  456.32
     51.6700	  731.00	  741.95	-2025.70	  456.39
     51.7700	  796.00	  726.29	-1945.04	  456.46
     51.8700	  734.00	  712.27	-1993.02	  456.52
     51.9700	  683.00	  700.33	-2032.08	  456.59
     52.0700	  689.00	  690.98	-2016.73	  456.66
     52.1700	  719.00	  684.14	-1979.89	  456.72
     52.2700	  713.00	  679.22	-1980.97	  456.79
     52.3700	  686.00	  675.38	-2004.13	  456.85
     52.4700	  696.00	  672.06	-1990.81	  456.92
     52.5700	  668.00	  669.42	-2016.17	  456.98
     52.6700	  683.00	  668.07	-1999.82	  457.04
     52.7700	  673.00	  668.80	-2010.55	  457.11
     52.8700	  674.00	  672.50	-2013.25	  457.17
     52.9700	  712.00	  680.44	-1983.19	  457.23
     53.0700	  689.00	  694.46	-2020.21	  457.29
     53.1700	  694.00	  717.15	-2037.90	  457.35
     53.2700	  740.00	  751.68	-2026.43	  457.41
     53.3700	  769.00	  801.28	-2047.03	  457.47
     53.4700	  852.00	  868.11	-2030.86	  457.52
     53.5700	  948.00	  951.92	-2018.67	  457.58
     53.6700	 1060.00	 1048.28	-2003.03	  457.64
     53.7700	 1221.00	 1146.33	-1940.08	  457.69
     53.8700	 1298.00	 1227.85	-1944.60	  457.75
     53.9700	 1313.00	 1270.04	-1971.79	  457.80
     54.0700	 1347.00	 1257.58	-1925.33	  457.85
     54.1700	 1207.00	 1195.10	-2002.85	  457.91
     54.2700	 1135.00	 1103.48	-1983.23	  457.96
     54.3700	  994.00	 1004.83	-2025.58	  458.01
     54.4700	  919.00	  914.03	-2009.78	  458.06
     54.5700	  829.00	  838.57	-2024.32	  458.11
     54.6700	  773.00	  780.67	-2022.42	  458.16
     54.7700	  757.00	  739.18	-1996.93	  458.20
     54.8700	  635.00	  711.15	-2090.90	  458.25
     54.9700	  643.00	  693.16	-2064.91	  458.30
     55.0700	  654.00	  682.12	-2042.87	  458.34
     55.1700	  680.00	  675.66	-2010.41	  458.39
     55.2700	  651.00	  672.22	-2035.97	  458.43
     55.3700	  674.00	  670.84	-2011.59	  458.47
     55.4700	  684.00	  671.00	-2001.75	  458.52
     55.5700	  640.00	  672.48	-2047.23	  458.56
     55.6700	  687.00	  675.22	-2002.97	  458.60
     55.7700	  679.00	  679.29	-2015.04	  458.64
     55.8700	  712.00	  684.88	-1987.63	  458.68
     55.9700	  649.00	  692.43	-2058.18	  458.71
     56.0700	  699.00	  702.73	-2018.48	  458.75
     56.1700	  779.00	  717.34	-1953.09	  458.79
     56.2700	  677.00	  739.13	-2076.88	  458.82
     56.3700	  755.00	  773.07	-2032.82	  458.86
     56.4700	  772.00	  827.01	-2069.76	  458.89
     56.5700	  893.00	  911.97	-2033.72	  458.92
     56.6700	 1044.00	 1040.96	-2011.71	  458.96
     56.7700	 1210.00	 1226.28	-2031.03	  458.99
     56.8700	 1540.00	 1474.33	-1949.08	  459.02
     56.9700	 1765.00	 1779.65	-2029.40	  459.05
     57.0700	 2181.00	 2118.68	-1952.43	  459.07
     57.1700	 2488.00	 2444.38	-1971.13	  459.10
     57.2700	 2671.00	 2686.64	-2030.39	  459.13
     57.3700	 2736.00	 2771.74	-2050.49	  459.15
     57.4700	 2508.00	 2668.18	-2174.93	  459.18
     57.5700	 2310.00	 2413.64	-2118.39	  459.20
     57.6700	 2049.00	 2084.39	-2050.14	  459.22
     57.7700	 1665.00	 1749.14	-2098.89	  459.25
     57.8700	 1352.00	 1452.17	-2114.92	  459.27
     57.9700	 1127.00	 1214.67	-2102.42	  459.29
     58.0700	  979.00	 1040.64	-2076.39	  459.31
     58.1700	  874.00	  923.26	-2064.01	  459.32
     58.2700	  831.00	  851.10	-2034.85	  459.34
     58.3700	  775.00	  813.16	-2052.91	  459.36
     58.4700	  799.00	  801.79	-2017.54	  459.37
     58.5700	  815.00	  813.15	-2012.90	  459.39
     58.6700	  843.00	  846.21	-2017.96	  459.40
     58.7700	  905.00	  900.90	-2010.65	  459.41
     58.8700	  986.00	  975.56	-2004.31	  459.42
     58.9700	 1062.00	 1065.05	-2017.80	  459.43
     59.0700	 1101.00	 1159.41	-2073.16	  459.44
     59.1700	 1266.00	 1244.84	-1993.59	  459.45
     59.2700	 1261.00	 1309.06	-2062.81	  459.46
     59.3700	 1307.00	 1347.49	-2055.24	  459.46
     59.4700	 1315.00	 1361.02	-2060.77	  459.47
     59.5700	 1385.00	 1349.96	-1979.71	  459.47
     59.6700	 1245.00	 1316.13	-2085.88	  459.48
     59.7700	 1284.00	 1268.88	-1999.63	  459.48
     59.8700	 1269.00	 1223.21	-1968.96	  459.48
     59.9700	 1289.00	 1192.38	-1918.13	  459.48
     60.0700	 1202.00	 1184.85	-1997.60	  459.48
     60.1700	 1240.00	 1205.81	-1980.56	  459.48
     60.2700	 1360.00	 1258.60	-1913.35	  459.48
     60.3700	 1384.00	 1342.35	-1973.10	  459.47
     60.4700	 1534.00	 1447.95	-1928.70	  459.47
     60.5700	 1539.00	 1555.61	-2031.36	  459.46
     60.6700	 1677.00	 1635.75	-1973.50	  459.45
     60.7700	 1596.00	 1657.15	-2075.90	  459.45
     60.8700	 1561.00	 1604.10	-2057.85	  459.44
     60.9700	 1468.00	 1488.31	-2035.06	  459.43
     61.0700	 1339.00	 1339.08	-2014.83	  459.42
     61.1700	 1150.00	 1185.55	-2050.30	  459.40
     61.2700	 1057.00	 1048.21	-2005.96	  459.39
     61.3700	  930.00	  938.36	-2023.11	  459.38
     61.4700	  844.00	  859.66	-2030.41	  459.36
     61.5700	  819.00	  810.93	-2006.68	  459.35
     61.6700	  847.00	  789.17	-1956.92	  459.33
     61.7700	  799.00	  792.20	-2007.95	  459.31
     61.8700	  843.00	  820.12	-1991.87	  459.29
     61.9700	  907.00	  875.35	-1983.10	  459.27
     62.0700	 1027.00	  961.12	-1948.87	  459.25
     62.1700	 1108.00	 1079.09	-1985.84	  459.23
     62.2700	 1265.00	 1226.37	-1976.12	  459.20
     62.3700	 1502.00	 1392.85	-1905.60	  459.18
     62.4700	 1579.00	 1559.35	-1995.10	  459.15
     62.5700	 1695.00	 1697.07	-2016.82	  459.13
     62.6700	 1798.00	 1772.57	-1989.32	  459.10
     62.7700	 1756.00	 1762.45	-2021.20	  459.07
     62.8700	 1637.00	 1669.54	-2047.29	  459.04
     62.9700	 1487.00	 1520.97	-2048.72	  459.01
     63.0700	 1304.00	 1350.21	-2060.96	  458.98
     63.1700	 1144.00	 1184.09	-2054.84	  458.94
     63.2700	  943.00	 1039.59	-2111.34	  458.91
     63.3700	  926.00	  924.68	-2013.43	  458.87
     63.4700	  842.00	  840.23	-2012.98	  458.84
     63.5700	  783.00	  782.60	-2014.35	  458.80
     63.6700	  722.00	  746.00	-2038.75	  458.76
     63.7700	  706.00	  724.69	-2033.44	  458.72
     63.8700	  736.00	  714.16	-1992.91	  458.68
     63.9700	  697.00	  711.56	-2029.31	  458.64
     64.0700	  698.00	  715.92	-2032.67	  458.60
     64.1700	  732.00	  727.27	-2010.02	  458.55
     64.2700	  803.00	  748.47	-1960.22	  458.51
     64.3700	  796.00	  781.95	-2000.70	  458.46
     64.4700	  844.00	  831.17	-2001.92	  458.42
     64.5700	  915.00	  899.40	-1999.15	  458.37
     64.6700	 1020.00	  988.59	-1983.34	  458.32
     64.7700	 1081.00	 1098.10	-2031.85	  458.27
     64.8700	 1203.00	 1223.13	-2034.88	  458.22
     64.9700	 1373.00	 1353.48	-1995.23	  458.17
     65.0700	 1469.00	 1473.39	-2019.14	  458.11
     65.1700	 1588.00	 1563.89	-1990.64	  458.06
     65.2700	 1562.00	 1607.87	-2060.62	  458.00
     65.3700	 1535.00	 1596.03	-2075.78	  457.95
     65.4700	 1480.00	 1530.69	-2065.44	  457.89
     65.5700	 1297.00	 1426.84	-2144.59	  457.83
     65.6700	 1229.00	 1304.81	-2090.56	  457.77
     65.7700	 1082.00	 1181.88	-2114.63	  457.71
     65.8700	 1012.00	 1069.88	-2072.63	  457.65
     65.9700	  902.00	  974.68	-2087.43	  457.58
     66.0700	  877.00	  897.66	-2035.41	  457.52
     66.1700	  847.00	  837.91	-2005.66	  457.45
     66.2700	  761.00	  793.11	-2046.86	  457.39
     66.3700	  740.00	  760.52	-2035.27	  457.32
     66.4700	  719.00	  737.33	-2033.08	  457.25
     66.5700	  717.00	  721.15	-2018.90	  457.18
     66.6700	  688.00	  710.15	-2036.90	  457.11
     66.7700	  651.00	  703.11	-2066.86	  457.04
     66.8700	  622.00	  699.25	-2092.00	  456.97
     66.9700	  661.00	  698.15	-2051.90	  456.90
     67.0700	  702.00	  699.71	-2012.46	  456.82
     67.1700	  714.00	  704.27	-2005.02	  456.75
     67.2700	  719.00	  712.42	-2008.17	  456.67
     67.3700	  664.00	  725.72	-2076.47	  456.59
     67.4700	  728.00	  746.82	-2033.57	  456.51
     67.5700	  847.00	  779.38	-1947.13	  456.43
     67.6700	  812.00	  828.86	-2031.61	  456.35
     67.7700	  870.00	  901.95	-2046.70	  456.27
     67.8700	  996.00	 1005.88	-2024.63	  456.19
     67.9700	 1174.00	 1147.06	-1987.81	  456.10
     68.0700	 1368.00	 1328.89	-1975.64	  456.02
     68.1700	 1594.00	 1549.74	-1970.49	  455.93
     68.2700	 1792.00	 1800.44	-2023.19	  455.85
     68.3700	 2166.00	 2062.52	-1911.27	  455.76
     68.4700	 2342.00	 2306.98	-1979.73	  455.67
     68.5700	 2421.00	 2495.47	-2089.22	  455.58
     68.6700	 2591.00	 2588.21	-2011.96	  455.49
     68.7700	 2565.00	 2561.43	-2011.18	  455.40
     68.8700	 2346.00	 2422.21	-2090.96	  455.30
     68.9700	 2175.00	 2203.69	-2043.44	  455.21
     69.0700	 2048.00	 1946.81	-1913.56	  455.11
     69.1700	 1746.00	 1686.28	-1955.03	  455.02
     69.2700	 1502.00	 1446.44	-1959.19	  454.92
     69.3700	 1265.00	 1241.51	-1991.26	  454.82
     69.4700	 1163.00	 1077.08	-1928.83	  454.72
     69.5700	 1006.00	  952.29	-1961.04	  454.62
     69.6700	  863.00	  862.09	-2013.84	  454.52
     69.7700	  852.00	  799.50	-1962.25	  454.42
     69.8700	  814.00	  757.34	-1958.09	  454.32
     69.9700	  769.00	  729.40	-1975.15	  454.22
     70.0700	  745.00	  710.91	-1980.66	  454.11
     70.1700	  747.00	  698.50	-1966.25	  454.00
     70.2700	  736.00	  689.98	-1968.73	  453.90
     70.3700	  701.00	  684.04	-1997.79	  453.79
     70.4700	  700.00	  679.91	-1994.66	  453.68
     70.5700	  696.00	  677.19	-1995.94	  453.57
     70.6700	  684.00	  675.64	-2006.39	  453.46
     70.7700	  730.00	  675.21	-1959.96	  453.35
     70.8700	  706.00	  675.95	-1984.70	  453.24
     70.9700	  733.00	  678.06	-1959.81	  453.12
     71.0700	  695.00	  681.93	-2001.68	  453.01
     71.1700	  707.00	  688.06	-1995.81	  452.89
     71.2700	  688.00	  697.96	-2024.71	  452.78
     71.3700	  693.00	  713.19	-2034.94	  452.66
     71.4700	  709.00	  736.22	-2041.97	  452.54
     71.5700	  764.00	  770.34	-2021.09	  452.42
     71.6700	  832.00	  819.53	-2002.28	  452.30
     71.7700	  877.00	  888.01	-2025.76	  452.18
     71.8700	  982.00	  979.65	-2012.40	  452.06
     71.9700	 1161.00	 1096.80	-1950.55	  451.94
     72.0700	 1295.00	 1239.30	-1959.05	  451.81
     72.1700	 1495.00	 1403.20	-1922.95	  451.69
     72.2700	 1596.00	 1579.80	-1998.55	  451.56
     72.3700	 1700.00	 1754.95	-2069.70	  451.44
     72.4700	 1877.00	 1908.69	-2046.44	  451.31
     72.5700	 1921.00	 2017.20	-2110.95	  451.18
     72.6700	 2026.00	 2058.80	-2047.55	  451.05
     72.7700	 1935.00	 2023.92	-2103.67	  450.92
     72.8700	 1768.00	 1920.54	-2167.29	  450.79
     72.9700	 1751.00	 1769.62	-2033.37	  450.66
     73.0700	 1580.00	 1595.83	-2030.58	  450.53
     73.1700	 1457.00	 1418.17	-1975.92	  450.39
     73.2700	 1230.00	 1252.05	-2036.80	  450.26
     73.3700	 1116.00	 1106.51	-2005.26	  450.13
     73.4700	  920.00	  985.86	-2080.61	  449.99
     73.5700	  909.00	  890.55	-1996.30	  449.85
     73.6700	  754.00	  818.42	-2079.17	  449.72
     73.7700	  806.00	  765.81	-1974.56	  449.58
     73.8700	  756.00	  728.55	-1987.30	  449.44
     73.9700	  753.00	  702.73	-1964.48	  449.30
     74.0700	  741.00	  684.55	-1958.30	  449.16
     74.1700	  677.00	  672.59	-2010.34	  449.02
     74.2700	  620.00	  664.61	-2059.36	  448.87
     74.3700	  698.00	  659.48	-1976.23	  448.73
     74.4700	  672.00	  656.51	-1999.26	  448.59
     74.5700	  632.00	  655.25	-2038.00	  448.44
     74.6700	  684.00	  655.40	-1986.15	  448.30
     74.7700	  681.00	  656.69	-1990.44	  448.15
     74.8700	  627.00	  658.80	-2046.55	  448.00
     74.9700	  668.00	  661.30	-2008.05	  447.85
     75.0700	  686.00	  663.82	-1992.57	  447.71
     75.1700	  698.00	  665.74	-1982.49	  447.56
     75.2700	  705.00	  666.54	-1976.29	  447.41
     75.3700	  731.00	  665.91	-1949.66	  447.25
     75.4700	  776.00	  663.97	-1902.72	  447.10
     75.5700	  710.00	  661.21	-1965.96	  446.95
     75.6700	  744.00	  658.40	-1929.15	  446.80
     75.7700	  716.00	  656.28	-1955.03	  446.64
     75.8700	  713.00	  655.85	-1957.60	  446.49
     75.9700	  707.00	  657.96	-1965.71	  446.33
     76.0700	  626.00	  663.56	-2052.31	  446.18
     76.1700	  699.00	  673.66	-1989.41	  446.02
     76.2700	  675.00	  689.26	-2029.01	  445.86
     76.3700	  703.00	  711.22	-2022.97	  445.71
     76.4700	  794.00	  740.09	-1960.84	  445.55
     76.5700	  816.00	  775.90	-1974.65	  445.39
     76.6700	  837.00	  817.94	-1995.69	  445.23
     76.7700	  814.00	  864.59	-2065.34	  445.07
     76.8700	  892.00	  913.09	-2035.84	  444.91
     76.9700	  970.00	  959.48	-2004.23	  444.74
     77.0700	  928.00	  998.65	-2085.40	  444.58
     77.1700	 1011.00	 1024.94	-2028.69	  444.42
     77.2700	  979.00	 1033.60	-2069.35	  444.25
     77.3700	  966.00	 1022.80	-2071.55	  444.09
     77.4700	  971.00	  994.58	-2038.33	  443.92
     77.5700	  910.00	  953.80	-2058.55	  443.76
     77.6700	  937.00	  905.90	-1983.65	  443.59
     77.7700	  855.00	  856.29	-2016.04	  443.43
     77.8700	  768.00	  808.59	-2055.34	  443.26
     77.9700	  840.00	  765.42	-1940.17	  443.09
     78.0700	  702.00	  728.27	-2041.02	  442.92
     78.1700	  686.00	  697.68	-2026.43	  442.75
     78.2700	  716.00	  673.50	-1972.25	  442.58
     78.3700	  687.00	  655.06	-1982.81	  442.41
     78.4700	  654.00	  641.43	-2002.18	  442.24
     78.5700	  596.00	  631.62	-2050.37	  442.07
     78.6700	  653.00	  624.69	-1986.44	  441.90
     78.7700	  656.00	  619.85	-1978.60	  441.72
     78.8700	  634.00	  616.49	-1997.24	  441.55
     78.9700	  635.00	  614.10	-1993.85	  441.38
     79.0700	  601.00	  612.50	-2026.25	  441.20
     79.1700	  607.00	  611.44	-2019.19	  441.03
     79.2700	  572.00	  610.79	-2053.54	  440.85
     79.3700	  608.00	  610.50	-2017.25	  440.68
     79.4700	  601.00	  610.56	-2024.31	  440.50
     79.5700	  644.00	  610.97	-1981.72	  440.32
     79.6700	  638.00	  611.78	-1988.53	  440.15
     79.7700	  626.00	  613.04	-2001.79	  439.97
     79.8700	  567.00	  614.87	-2062.62	  439.79
     79.9700	  571.00	  617.43	-2061.18	  439.61
     80.0700	  636.00	  620.99	-1999.74	  439.43
     80.1700	  671.00	  625.92	-1969.67	  439.25
     80.2700	  614.00	  632.85	-2033.60	  439.08
     80.3700	  633.00	  642.63	-2024.38	  438.89
     80.4700	  717.00	  656.18	-1953.93	  438.71
     80.5700	  698.00	  675.46	-1992.21	  438.53
     80.6700	  717.00	  701.98	-1999.73	  438.35
     80.7700	  751.00	  737.61	-2001.36	  438.17
     80.8700	  851.00	  784.09	-1947.84	  437.99
     80.9700	  882.00	  842.68	-1975.43	  437.81
     81.0700	  978.00	  913.76	-1950.51	  437.62
     81.1700	  993.00	  996.35	-2018.10	  437.44
     81.2700	 1162.00	 1087.75	-1940.50	  437.26
     81.3700	 1170.00	 1183.25	-2028.00	  437.07
     81.4700	 1295.00	 1276.23	-1995.98	  436.89
     81.5700	 1294.00	 1358.69	-2079.44	  436.70
     81.6700	 1418.00	 1422.61	-2019.36	  436.52
     81.7700	 1461.00	 1461.81	-2015.56	  436.33
     81.8700	 1477.00	 1473.38	-2011.13	  436.15
     81.9700	 1433.00	 1457.69	-2039.44	  435.96
     82.0700	 1445.00	 1417.71	-1987.46	  435.77
     82.1700	 1280.00	 1358.49	-2093.24	  435.59
     82.2700	 1247.00	 1286.31	-2054.06	  435.40
     82.3700	 1208.00	 1207.64	-2014.39	  435.21
     82.4700	 1125.00	 1127.99	-2017.74	  435.03
     82.5700	 1035.00	 1051.63	-2031.38	  434.84
     82.6700	 1019.00	  981.54	-1977.29	  434.65
     82.7700	  925.00	  919.49	-2009.24	  434.46
     82.8700	  871.00	  866.07	-2009.82	  434.28
     82.9700	  782.00	  820.85	-2053.60	  434.09
     83.0700	  780.00	  782.76	-2017.51	  433.90
     83.1700	  745.00	  750.66	-2020.41	  433.71
     83.2700	  652.00	  723.59	-2086.34	  433.52
     83.3700	  657.00	  700.91	-2058.66	  433.33
     83.4700	  639.00	  682.24	-2057.99	  433.14
     83.5700	  659.00	  667.35	-2023.10	  432.95
     83.6700	  645.00	  656.05	-2025.80	  432.76
     83.7700	  646.00	  648.22	-2016.97	  432.57
     83.8700	  607.00	  643.69	-2051.44	  432.38
     83.9700	  570.00	  642.23	-2086.98	  432.19
     84.0700	  683.00	  643.49	-1975.24	  432.00
     84.1700	  606.00	  647.01	-2055.76	  431.81
     84.2700	  646.00	  652.03	-2020.78	  431.62
     84.3700	  644.00	  658.09	-2028.84	  431.43
     84.4700	  697.00	  664.19	-1981.94	  431.24
     84.5700	  632.00	  669.37	-2052.12	  431.05
     84.6700	  637.00	  672.62	-2050.37	  430.86
     84.7700	  646.00	  673.36	-2042.11	  430.67
     84.8700	  648.00	  671.17	-2037.92	  430.48
     84.9700	  645.00	  666.21	-2035.96	  430.29
     85.0700	  638.00	  659.08	-2035.83	  430.09
     85.1700	  630.00	  650.58	-2035.33	  429.90
     85.2700	  562.00	  641.52	-2094.27	  429.71
     85.3700	  617.00	  632.59	-2030.34	  429.52
     85.4700	  632.00	  624.37	-2007.12	  429.33
     85.5700	  639.00	  617.27	-1993.02	  429.14
     85.6700	  625.00	  611.61	-2001.36	  428.95
     85.7700	  575.00	  607.54	-2047.29	  428.76
     85.8700	  616.00	  605.16	-2003.91	  428.57
     85.9700	  594.00	  604.52	-2025.27	  428.37
     86.0700	  634.00	  605.61	-1986.36	  428.18
     86.1700	  587.00	  608.43	-2036.18	  427.99
     86.2700	  589.00	  612.92	-2038.67	  427.80
     86.3700	  662.00	  619.04	-1971.79	  427.61
     86.4700	  591.00	  626.65	-2050.40	  427.42
     86.5700	  595.00	  635.58	-2055.33	  427.23
     86.6700	  668.00	  645.57	-1992.32	  427.04
     86.7700	  606.00	  656.26	-2065.01	  426.85
     86.8700	  682.00	  667.21	-1999.96	  426.66
     86.9700	  658.00	  677.90	-2034.65	  426.47
     87.0700	  666.00	  687.80	-2036.55	  426.28
     87.1700	  697.00	  696.53	-2014.28	  426.09
     87.2700	  725.00	  703.94	-1993.69	  425.90
     87.3700	  700.00	  710.22	-2024.97	  425.71
     87.4700	  715.00	  715.84	-2015.59	  425.52
     87.5700	  735.00	  721.27	-2001.02	  425.33
     87.6700	  713.00	  726.88	-2028.63	  425.14
     87.7700	  768.00	  732.77	-1979.52	  424.95
     87.8700	  681.00	  738.73	-2072.48	  424.77
     87.9700	  777.00	  744.26	-1982.01	  424.58
     88.0700	  734.00	  748.58	-2029.33	  424.39
     88.1700	  773.00	  750.72	-1992.47	  424.20
     88.2700	  742.00	  749.85	-2022.60	  424.02
     88.3700	  775.00	  745.45	-1985.20	  423.83
     88.4700	  636.00	  737.60	-2116.35	  423.64
     88.5700	  682.00	  726.84	-2059.59	  423.45
     88.6700	  721.00	  714.08	-2007.83	  423.27
     88.7700	  649.00	  700.28	-2066.03	  423.08
     88.8700	  705.00	  685.92	-1995.67	  422.90
     88.9700	  700.00	  672.68	-1987.43	  422.71
     89.0700	  646.00	  660.78	-2029.53	  422.53
     89.1700	  635.00	  650.70	-2030.45	  422.34
     89.2700	  662.00	  642.77	-1995.52	  422.16
     89.3700	  661.00	  637.09	-1990.84	  421.97
     89.4700	  641.00	  633.63	-2007.38	  421.79
     89.5700	  648.00	  632.20	-1998.95	  421.61
     89.6700	  650.00	  632.45	-1997.20	  421.42
     89.7700	  670.00	  633.95	-1978.70	  421.24
     89.8700	  668.00	  636.18	-1982.93	  421.06
     89.9700	  690.00	  638.54	-1963.29	  420.88
     90.0700	  705.00	  640.45	-1950.20	  420.70
     90.1700	  693.00	  641.35	-1963.10	  420.51
     90.2700	  696.00	  640.85	-1959.59	  420.33
     90.3700	  657.00	  638.77	-1996.52	  420.15
     90.4700	  681.00	  635.23	-1968.98	  419.98
     90.5700	  657.00	  630.51	-1988.26	  419.80
     90.6700	  661.00	  625.01	-1978.76	  419.62
     90.7700	  602.00	  619.13	-2031.88	  419.44
     90.8700	  593.00	  613.22	-2034.97	  419.26
     90.9700	  656.00	  607.58	-1966.33	  419.09
     91.0700	  610.00	  602.43	-2007.18	  418.91
     91.1700	  617.00	  597.91	-1995.66	  418.73
     91.2700	  612.00	  594.11	-1996.86	  418.56
     91.3700	  618.00	  591.03	-1987.78	  418.38
     91.4700	  597.00	  588.68	-2006.43	  418.21
     91.5700	  598.00	  587.00	-2003.75	  418.04
     91.6700	  602.00	  585.92	-1998.67	  417.86
     91.7700	  559.00	  585.41	-2041.16	  417.69
     91.8700	  623.00	  585.41	-1977.16	  417.52
     91.9700	  582.00	  585.92	-2018.67	  417.35
     92.0700	  649.00	  586.96	-1952.71	  417.18
     92.1700	  601.00	  588.59	-2002.34	  417.01
     92.2700	  574.00	  590.91	-2031.66	  416.84
     92.3700	  600.00	  594.07	-2008.82	  416.67
     92.4700	  571.00	  598.25	-2042.00	  416.50
     92.5700	  609.00	  603.68	-2009.43	  416.34
     92.6700	  603.00	  610.58	-2022.33	  416.17
     92.7700	  641.00	  619.18	-1992.93	  416.00
     92.8700	  623.00	  629.70	-2021.45	  415.84
     92.9700	  622.00	  642.29	-2035.04	  415.67
     93.0700	  667.00	  657.03	-2004.78	  415.51
     93.1700	  648.00	  673.90	-2040.65	  415.35
     93.2700	  647.00	  692.75	-2060.50	  415.19
     93.3700	  690.00	  713.30	-2038.05	  415.02
     93.4700	  702.00	  735.08	-2047.83	  414.86
     93.5700	  686.00	  757.50	-2086.25	  414.70
     93.6700	  769.00	  779.80	-2025.55	  414.55
     93.7700	  778.00	  801.12	-2037.87	  414.39
     93.8700	  838.00	  820.64	-1997.39	  414.23
     93.9700	  788.00	  837.78	-2064.53	  414.07
     94.0700	  809.00	  852.36	-2058.11	  413.92
     94.1700	  829.00	  864.68	-2050.43	  413.76
     94.2700	  871.00	  875.41	-2019.16	  413.61
     94.3700	  902.00	  885.39	-1998.14	  413.46
     94.4700	  940.00	  895.06	-1969.81	  413.30
     94.5700	  934.00	  905.63	-1986.38	  413.15
     94.6700	  909.00	  917.17	-2022.92	  413.00
     94.7700	  908.00	  929.89	-2036.64	  412.85
     94.8700	  957.00	  943.95	-2001.70	  412.71
     94.9700	  950.00	  959.46	-2024.21	  412.56
     95.0700	  947.00	  976.39	-2044.14	  412.41
     95.1700	 1006.00	  994.44	-2003.19	  412.27
     95.2700	 1032.00	 1012.88	-1995.63	  412.12
     95.3700	 1048.00	 1030.47	-1997.22	  411.98
     95.4700	  999.00	 1045.57	-2061.32	  411.83
     95.5700	 1074.00	 1056.25	-1997.00	  411.69
     95.6700	 1074.00	 1060.61	-2001.36	  411.55
     95.7700	 1090.00	 1057.16	-1981.91	  411.41
     95.8700	 1055.00	 1045.23	-2004.98	  411.27
     95.9700	 1012.00	 1025.20	-2027.95	  411.14
     96.0700	  948.00	  998.42	-2065.17	  411.00
     96.1700	  905.00	  966.88	-2076.63	  410.86
     96.2700	 1012.00	  932.90	-1935.65	  410.73
     96.3700	  887.00	  898.85	-2026.60	  410.60
     96.4700	  863.00	  866.96	-2018.71	  410.47
     96.5700	  822.00	  839.26	-2032.01	  410.33
     96.6700	  808.00	  817.50	-2024.25	  410.20
     96.7700	  815.00	  803.18	-2002.93	  410.08
     96.8700	  839.00	  797.49	-1973.24	  409.95
     96.9700	  848.00	  801.35	-1968.10	  409.82
     97.0700	  839.00	  815.44	-1991.19	  409.70
     97.1700	  860.00	  840.16	-1994.91	  409.57
     97.2700	  934.00	  875.71	-1956.46	  409.45
     97.3700	 1028.00	  921.95	-1908.70	  409.33
     97.4700	 1006.00	  978.41	-1987.16	  409.21
     97.5700	 1014.00	 1044.18	-2044.93	  409.09
     97.6700	 1189.00	 1117.89	-1943.64	  408.97
     97.7700	 1214.00	 1197.61	-1998.36	  408.85
     97.8700	 1307.00	 1280.75	-1988.50	  408.74
     97.9700	 1306.00	 1364.12	-2072.87	  408.62
     98.0700	 1461.00	 1443.87	-1997.62	  408.51
     98.1700	 1491.00	 1515.68	-2039.43	  408.40
     98.2700	 1567.00	 1574.95	-2022.70	  408.29
     98.3700	 1559.00	 1617.35	-2073.10	  408.18
     98.4700	 1547.00	 1639.56	-2107.31	  408.07
     98.5700	 1670.00	 1639.97	-1984.72	  407.96
     98.6700	 1557.00	 1619.07	-2076.82	  407.86
     98.7700	 1536.00	 1579.26	-2058.01	  407.75
     98.8700	 1472.00	 1524.24	-2066.99	  407.65
     98.9700	 1383.00	 1458.36	-2090.11	  407.55
     99.0700	 1394.00	 1386.05	-2006.80	  407.45
     99.1700	 1336.00	 1311.44	-1990.19	  407.35
     99.2700	 1173.00	 1238.22	-2079.97	  407.26
     99.3700	 1175.00	 1169.60	-2009.35	  407.16
     99.4700	 1077.00	 1108.24	-2045.99	  407.07
     99.5700	 1111.00	 1056.33	-1960.08	  406.97
     99.6700	 1036.00	 1015.61	-1994.36	  406.88
     99.7700	  999.00	  987.39	-2003.14	  406.79
     99.8700	  982.00	  972.68	-2005.43	  406.70
     99.9700	  990.00	  972.14	-1996.89	  406.62
    100.0700	 1001.00	  986.12	-1999.87	  406.53
    100.1700	 1095.00	 1014.66	-1934.41	  406.45
    100.2700	 1067.00	 1057.50	-2005.25	  406.37
    100.3700	 1145.00	 1114.07	-1983.82	  406.29
    100.4700	 1200.00	 1183.41	-1998.16	  406.21
    100.5700	 1302.00	 1264.16	-1976.91	  406.13
    100.6700	 1376.00	 1354.49	-1993.24	  406.05
    100.7700	 1467.00	 1452.05	-1999.80	  405.98
    100.8700	 1589.00	 1553.99	-1979.74	  405.90
    100.9700	 1749.00	 1656.83	-1922.58	  405.83
    101.0700	 1715.00	 1757.01	-2056.76	  405.76
    101.1700	 1841.00	 1850.58	-2024.33	  405.70
    101.2700	 1890.00	 1933.92	-2058.67	  405.63
    101.3700	 1959.00	 2004.16	-2059.91	  405.56
    101.4700	 2124.00	 2059.31	-1950.06	  405.50
    101.5700	 2096.00	 2098.27	-2017.02	  405.44
    101.6700	 2076.00	 2120.51	-2059.26	  405.38
    101.7700	 2084.00	 2125.77	-2056.52	  405.32
    101.8700	 2127.00	 2114.01	-2001.76	  405.26
    101.9700	 2144.00	 2085.53	-1956.28	  405.21
    102.0700	 2110.00	 2041.40	-1946.15	  405.16
    102.1700	 2073.00	 1983.70	-1925.45	  405.11
    102.2700	 1917.00	 1915.57	-2013.32	  405.06
    102.3700	 1943.00	 1840.82	-1912.57	  405.01
    102.4700	 1891.00	 1763.47	-1887.22	  404.96
    102.5700	 1717.00	 1687.18	-1984.93	  404.92
    102.6700	 1654.00	 1615.01	-1975.76	  404.87
    102.7700	 1568.00	 1549.19	-1995.94	  404.83
    102.8700	 1489.00	 1491.06	-2016.81	  404.79
    102.9700	 1416.00	 1441.19	-2039.94	  404.76
    103.0700	 1430.00	 1399.36	-1984.11	  404.72
    103.1700	 1328.00	 1364.74	-2051.49	  404.69
    103.2700	 1312.00	 1335.91	-2038.66	  404.66
    103.3700	 1336.00	 1311.00	-1989.75	  404.63
    103.4700	 1290.00	 1287.88	-2012.63	  404.60
    103.5700	 1208.00	 1264.38	-2071.13	  404.57
    103.6700	 1256.00	 1238.62	-1997.37	  404.55
    103.7700	 1233.00	 1209.30	-1991.05	  404.53
    103.8700	 1187.00	 1175.80	-2003.55	  404.51
    103.9700	 1108.00	 1138.25	-2045.00	  404.49
    104.0700	 1116.00	 1097.34	-1996.09	  404.47
    104.1700	 1037.00	 1054.08	-2031.83	  404.46
    104.2700	  982.00	 1009.63	-2042.38	  404.44
    104.3700	  990.00	  965.11	-1989.86	  404.43
    104.4700	 1002.00	  921.54	-1934.29	  404.43
    104.5700	  888.00	  879.81	-2006.56	  404.42
    104.6700	  837.00	  840.64	-2018.39	  404.41
    104.7700	  839.00	  804.57	-1980.32	  404.41
    104.8700	  806.00	  771.96	-1980.71	  404.41
    104.9700	  770.00	  742.93	-1987.68	  404.41
    105.0700	  713.00	  717.67	-2019.42	  404.42
    105.1700	  699.00	  696.01	-2011.76	  404.42
    105.2700	  747.00	  677.75	-1945.50	  404.43
    105.3700	  695.00	  662.63	-1982.38	  404.44
    105.4700	  678.00	  650.32	-1987.07	  404.45
    105.5700	  622.00	  640.49	-2033.24	  404.46
    105.6700	  664.00	  632.77	-1983.52	  404.48
    105.7700	  661.00	  626.95	-1980.70	  404.50
    105.8700	  602.00	  622.72	-2035.47	  404.52
    105.9700	  609.00	  619.86	-2025.61	  404.54
    106.0700	  641.00	  618.19	-1991.94	  404.57
    106.1700	  623.00	  617.59	-2009.34	  404.59
    106.2700	  574.00	  617.99	-2058.74	  404.62
    106.3700	  626.00	  619.34	-2008.09	  404.65
    106.4700	  631.00	  621.66	-2005.41	  404.69
    106.5700	  620.00	  624.97	-2019.72	  404.72
    106.6700	  657.00	  629.32	-1987.07	  404.76
    106.7700	  624.00	  634.77	-2025.52	  404.80
    106.8700	  623.00	  641.39	-2033.14	  404.84
    106.9700	  628.00	  649.24	-2035.99	  404.89
    107.0700	  606.00	  658.36	-2067.11	  404.93
    107.1700	  684.00	  668.74	-1999.49	  404.98
    107.2700	  647.00	  680.35	-2048.10	  405.03
    107.3700	  662.00	  693.06	-2045.81	  405.09
    107.4700	  674.00	  706.72	-2047.47	  405.14
    107.5700	  712.00	  721.08	-2023.83	  405.20
    107.6700	  692.00	  735.85	-2058.60	  405.26
    107.7700	  729.00	  750.65	-2036.40	  405.32
    107.8700	  763.00	  765.05	-2016.80	  405.39
    107.9700	  757.00	  778.60	-2036.35	  405.46
    108.0700	  760.00	  790.81	-2045.56	  405.53
    108.1700	  794.00	  801.21	-2021.96	  405.60
    108.2700	  782.00	  809.44	-2042.19	  405.67
    108.3700	  756.00	  815.24	-2073.99	  405.75
    108.4700	  783.00	  818.57	-2050.32	  405.83
    108.5700	  770.00	  819.65	-2064.40	  405.91
    108.6700	  759.00	  818.80	-2074.55	  406.00
    108.7700	  763.00	  816.51	-2068.26	  406.08
    108.8700	  808.00	  813.31	-2020.06	  406.17
    108.9700	  785.00	  809.73	-2039.48	  406.27
    109.0700	  779.00	  806.23	-2041.98	  406.36
    109.1700	  769.00	  803.17	-2048.92	  406.46
    109.2700	  755.00	  800.83	-2060.58	  406.56
    109.3700	  757.00	  799.34	-2057.09	  406.66
    109.4700	  748.00	  798.73	-2065.48	  406.76
    109.5700	  786.00	  798.90	-2027.65	  406.87
    109.6700	  753.00	  799.63	-2061.38	  406.98
    109.7700	  762.00	  800.60	-2053.35	  407.09
    109.8700	  772.00	  801.40	-2044.15	  407.21
    109.9700	  760.00	  801.60	-2056.35	  407.32
    110.0700	  731.00	  800.74	-2084.49	  407.44
    110.1700	  765.00	  798.44	-2048.19	  407.57
    110.2700	  768.00	  794.46	-2041.21	  407.69
    110.3700	  754.00	  788.68	-2049.43	  407.82
    110.4700	  777.00	  781.16	-2018.91	  407.95
    110.5700	  742.00	  772.09	-2044.84	  408.08
    110.6700	  748.00	  761.76	-2028.51	  408.22
    110.7700	  713.00	  750.50	-2052.25	  408.35
    110.8700	  662.00	  738.67	-2091.42	  408.50
    110.9700	  732.00	  726.60	-2009.35	  408.64
    111.0700	  696.00	  714.61	-2033.36	  408.79
    111.1700	  729.00	  702.96	-1988.71	  408.93
    111.2700	  693.00	  691.89	-2013.64	  409.09
    111.3700	  700.00	  681.57	-1996.32	  409.24
    111.4700	  668.00	  672.16	-2018.91	  409.40
    111.5700	  660.00	  663.74	-2018.49	  409.56
    111.6700	  635.00	  656.39	-2036.14	  409.72
    111.7700	  654.00	  650.12	-2010.87	  409.89
    111.8700	  663.00	  644.92	-1996.67	  410.05
    111.9700	  612.00	  640.75	-2043.50	  410.22
    112.0700	  618.00	  637.56	-2034.31	  410.40
    112.1700	  611.00	  635.27	-2039.02	  410.58
    112.2700	  629.00	  633.79	-2019.54	  410.75
    112.3700	  597.00	  633.01	-2050.76	  410.94
    112.4700	  639.00	  632.85	-2008.60	  411.12
    112.5700	  585.00	  633.20	-2062.95	  411.31
    112.6700	  612.00	  633.96	-2036.71	  411.50
    112.7700	  619.00	  635.06	-2030.81	  411.69
    112.8700	  633.00	  636.42	-2018.17	  411.89
    112.9700	  623.00	  637.96	-2029.71	  412.09
    113.0700	  585.00	  639.63	-2069.38	  412.29
    113.1700	  610.00	  641.41	-2046.16	  412.50
    113.2700	  646.00	  643.27	-2012.02	  412.71
    113.3700	  628.00	  645.23	-2031.98	  412.92
    113.4700	  621.00	  647.29	-2041.04	  413.13
    113.5700	  587.00	  649.49	-2077.24	  413.35
    113.6700	  624.00	  651.88	-2042.63	  413.57
    113.7700	  642.00	  654.51	-2027.26	  413.79
    113.8700	  631.00	  657.45	-2041.20	  414.02
    113.9700	  637.00	  660.79	-2038.54	  414.25
    114.0700	  630.00	  664.64	-2049.39	  414.48
    114.1700	  651.00	  669.12	-2032.87	  414.71
    114.2700	  622.00	  674.41	-2067.16	  414.95
    114.3700	  698.00	  680.70	-1997.45	  415.19
    114.4700	  689.00	  688.27	-2014.02	  415.44
    114.5700	  700.00	  697.49	-2012.24	  415.68
    114.6700	  688.00	  708.79	-2035.54	  415.93
    114.7700	  709.00	  722.75	-2028.50	  416.19
    114.8700	  765.00	  740.11	-1989.86	  416.44
    114.9700	  804.00	  761.75	-1972.50	  416.70
    115.0700	  769.00	  788.79	-2034.54	  416.97
    115.1700	  861.00	  822.57	-1976.32	  417.23
    115.2700	  916.00	  864.69	-1963.44	  417.50
    115.3700	  934.00	  916.99	-1997.74	  417.77
    115.4700	 1103.00	  981.60	-1893.35	  418.05
    115.5700	 1195.00	 1060.88	-1880.63	  418.32
    115.6700	 1313.00	 1157.43	-1859.18	  418.61
    115.7700	 1416.00	 1273.99	-1872.74	  418.89
    115.8700	 1625.00	 1413.36	-1803.11	  419.18
    115.9700	 1787.00	 1578.30	-1806.05	  419.47
    116.0700	 2028.00	 1771.35	-1758.10	  419.76
    116.1700	 2275.00	 1994.74	-1734.49	  420.06
    116.2700	 2474.00	 2250.19	-1790.94	  420.36
    116.3700	 2802.00	 2538.59	-1751.34	  420.66
    116.4700	 3037.00	 2859.96	-1837.71	  420.97
    116.5700	 3466.00	 3213.15	-1761.90	  421.28
    116.6700	 3642.00	 3595.84	-1968.59	  421.60
    116.7700	 4142.00	 4004.35	-1877.10	  421.91
    116.8700	 4576.00	 4433.45	-1872.20	  422.23
    116.9700	 4792.00	 4876.46	-2099.21	  422.56
    117.0700	 5221.00	 5325.31	-2119.06	  422.88
    117.1700	 5819.00	 5770.68	-1966.43	  423.21
    117.2700	 5939.00	 6202.12	-2277.87	  423.55
    117.3700	 6406.00	 6608.16	-2216.91	  423.88
    117.4700	 6639.00	 6976.88	-2352.63	  424.22
    117.5700	 7013.00	 7296.26	-2298.01	  424.57
    117.6700	 7356.00	 7554.98	-2213.73	  424.91
    117.7700	 7446.00	 7743.14	-2311.89	  425.26
    117.8700	 7602.00	 7853.08	-2265.83	  425.62
    117.9700	 7595.00	 7880.31	-2300.06	  425.97
    118.0700	 7479.00	 7824.04	-2359.79	  426.33
    118.1700	 7539.00	 7687.23	-2162.98	  426.70
    118.2700	 7225.00	 7476.20	-2265.95	  427.06
    118.3700	 7048.00	 7199.96	-2166.71	  427.43
    118.4700	 6562.00	 6869.30	-2322.05	  427.81
    118.5700	 6294.00	 6495.95	-2216.70	  428.18
    118.6700	 5985.00	 6091.72	-2121.47	  428.56
    118.7700	 5575.00	 5668.05	-2107.80	  428.95
    118.8700	 5247.00	 5235.70	-2003.45	  429.34
    118.9700	 4961.00	 4804.31	-1858.06	  429.73
    119.0700	 4707.00	 4382.35	-1690.10	  430.12
    119.1700	 4152.00	 3976.73	-1839.48	  430.52
    119.2700	 3850.00	 3592.95	-1757.70	  430.92
    119.3700	 3531.00	 3235.18	-1718.93	  431.33
    119.4700	 3211.00	 2906.16	-1709.91	  431.73
    119.5700	 2855.00	 2607.42	-1767.17	  432.15
    119.6700	 2610.00	 2339.30	-1744.05	  432.56
    119.7700	 2297.00	 2101.24	-1818.99	  432.98
    119.8700	 2084.00	 1892.04	-1822.79	  433.40
    119.9700	 1921.00	 1709.90	-1803.65	  433.83
    120.0700	 1798.00	 1552.67	-1769.42	  434.26
    120.1700	 1649.00	 1417.94	-1783.69	  434.69
    120.2700	 1460.00	 1303.22	-1857.97	  435.13
    120.3700	 1347.00	 1206.06	-1873.81	  435.57
    120.4700	 1317.00	 1124.12	-1821.87	  436.02
    120.5700	 1185.00	 1055.21	-1884.96	  436.46
    120.6700	 1153.00	  997.33	-1859.08	  436.91
    120.7700	 1047.00	  948.74	-1916.49	  437.37
    120.8700	 1009.00	  907.92	-1913.67	  437.83
    120.9700	  921.00	  873.59	-1967.34	  438.29
    121.0700	  874.00	  844.67	-1985.42	  438.76
    121.1700	  887.00	  820.27	-1948.02	  439.23
    121.2700	  794.00	  799.65	-2020.40	  439.70
    121.3700	  876.00	  782.25	-1921.00	  440.18
    121.4700	  723.00	  767.58	-2059.33	  440.66
    121.5700	  788.00	  755.28	-1982.03	  441.14
    121.6700	  782.00	  745.04	-1977.79	  441.63
    121.7700	  740.00	  736.63	-2011.38	  442.12
    121.8700	  692.00	  729.87	-2052.62	  442.62
    121.9700	  690.00	  724.59	-2049.34	  443.12
    122.0700	  728.00	  720.67	-2007.42	  443.62
    122.1700	  677.00	  718.03	-2055.78	  444.12
    122.2700	  715.00	  716.56	-2016.31	  444.64
    122.3700	  706.00	  716.20	-2024.95	  445.15
    122.4700	  689.00	  716.89	-2042.64	  445.67
    122.5700	  705.00	  718.58	-2028.33	  446.19
    122.6700	  675.00	  721.20	-2060.95	  446.71
    122.7700	  712.00	  724.69	-2027.44	  447.24
    122.8700	  674.00	  729.02	-2069.77	  447.78
    122.9700	  679.00	  734.09	-2069.84	  448.31
    123.0700	  694.00	  739.86	-2060.61	  448.85
    123.1700	  681.00	  746.24	-2079.99	  449.40
    123.2700	  737.00	  753.14	-2030.89	  449.95
    123.3700	  719.00	  760.47	-2056.22	  450.50
    123.4700	  712.00	  768.12	-2070.87	  451.06
    123.5700	  713.00	  775.99	-2077.74	  451.62
    123.6700	  732.00	  783.95	-2066.70	  452.18
    123.7700	  771.00	  791.88	-2035.63	  452.75
    123.8700	  803.00	  799.65	-2011.40	  453.32
    123.9700	  755.00	  807.14	-2066.89	  453.89
    124.0700	  774.00	  814.23	-2054.98	  454.47
    124.1700	  747.00	  820.82	-2088.57	  455.06
    124.2700	  781.00	  826.84	-2060.59	  455.64
    124.3700	  787.00	  832.23	-2059.98	  456.23
    124.4700	  825.00	  836.93	-2026.68	  456.83
    124.5700	  865.00	  841.03	-1990.78	  457.43
    124.6700	  827.00	  844.52	-2032.27	  458.03
    124.7700	  827.00	  847.45	-2035.20	  458.64
    124.8700	  788.00	  849.89	-2076.64	  459.25
    124.9700	  794.00	  594.67	-1815.42	  459.86
    125.0700	  807.00	  595.29	-2014.75	  460.48
    125.1700	  802.00	  595.91	-2014.75	  461.10
    125.2700	  744.00	  596.53	-2014.75	  461.73
    125.3700	  769.00	  597.17	-2014.75	  462.36
    125.4700	  805.00	  597.80	-2014.75	  463.00
    125.5700	  808.00	  598.44	-2014.75	  463.63
    125.6700	  801.00	  599.08	-2014.75	  464.28
    125.7700	  757.00	  599.73	-2014.75	  464.92
    125.8700	  798.00	  600.38	-2014.75	  465.57
    125.9700	  788.00	  601.03	-2014.75	  466.23
    126.0700	  737.00	  601.69	-2014.75	  466.89
    126.1700	  745.00	  602.35	-2014.75	  467.55
    126.2700	  761.00	  603.02	-2014.75	  468.22
    126.3700	  790.00	  603.69	-2014.75	  468.89
    126.4700	  746.00	  604.37	-2014.75	  469.56
    126.5700	  785.00	  605.05	-2014.75	  470.24
    126.6700	  766.00	  605.73	-2014.75	  470.92
    126.7700	  718.00	  606.42	-2014.75	  471.61
    126.8700	  739.00	  607.11	-2014.75	  472.30
    126.9700	  759.00	  607.80	-2014.75	  473.00
    127.0700	  693.00	  608.50	-2014.75	  473.70
    127.1700	  710.00	  609.20	-2014.75	  474.40
    127.2700	  658.00	  609.91	-2014.75	  475.11
    127.3700	  694.00	  610.62	-2014.75	  475.82
    127.4700	  653.00	  611.34	-2014.75	  476.54
    127.5700	  660.00	  612.06	-2014.75	  477.26
    127.6700	  657.00	  612.78	-2014.75	  477.98
    127.7700	  691.00	  613.51	-2014.75	  478.71
    127.8700	  615.00	  614.24	-2014.75	  479.44
    127.9700	  623.00	  614.98	-2014.75	  480.18
    128.0700	  697.00	  615.72	-2014.75	  480.92
    128.1700	  641.00	  616.47	-2014.75	  481.66
    128.2700	  671.00	  617.22	-2014.75	  482.41
    128.3700	  669.00	  617.97	-2014.75	  483.17
    128.4700	  691.00	  618.73	-2014.75	  483.92
    128.5700	    0.00	  619.49	-2014.75	  484.68
    128.6700	    0.00	  620.25	-2014.75	  485.45
     12.4367	        	        	        	        	       0	(  0  0  2)	  0  1
     12.4367	        	        	        	        	    -503	(  0  0  2)	  0  1
     25.1156	        	        	        	        	       0	(  0  0  4)	  0  1
     25.1156	        	        	        	        	    -503	(  0  0  4)	  0  1
     28.5628	        	        	        	        	       0	(  1  0  0)	  0  1
     28.5628	        	        	        	        	    -503	(  1  0  0)	  0  1
     29.2659	        	        	        	        	       0	(  1  0  1)	  0  1
     29.2659	        	        	        	        	    -503	(  1  0  1)	  0  1
     31.2893	        	        	        	        	       0	(  1  0  2)	  0  1
     31.2893	        	        	        	        	    -503	(  1  0  2)	  0  1
     34.4242	        	        	        	        	       0	(  1  0  3)	  0  1
     34.4242	        	        	        	        	    -503	(  1  0  3)	  0  1
     38.1179	        	        	        	        	       0	(  0  0  6)	  0  1
     38.1179	        	        	        	        	    -503	(  0  0  6)	  0  1
     38.4355	        	        	        	        	       0	(  1  0  4)	  0  1
     38.4355	        	        	        	        	    -503	(  1  0  4)	  0  1
     43.1262	        	        	        	        	       0	(  1  0  5)	  0  1
     43.1262	        	        	        	        	    -503	(  1  0  5)	  0  1
     48.3565	        	        	        	        	       0	(  1  0  6)	  0  1
     48.3565	        	        	        	        	    -503	(  1  0  6)	  0  1
     50.6653	        	        	        	        	       0	(  1  1  0)	  0  1
     50.6653	        	        	        	        	    -503	(  1  1  0)	  0  1
     51.6556	        	        	        	        	       0	(  0  0  8)	  0  1
     51.6556	        	        	        	        	    -503	(  0  0  8)	  0  1
     52.4049	        	        	        	        	       0	(  1  1  2)	  0  1
     52.4049	        	        	        	        	    -503	(  1  1  2)	  0  1
     54.0391	        	        	        	        	       0	(  1  0  7)	  0  1
     54.0391	        	        	        	        	    -503	(  1  0  7)	  0  1
     57.4015	        	        	        	        	       0	(  1  1  4)	  0  1
     57.4015	        	        	        	        	    -503	(  1  1  4)	  0  1
     59.2341	        	        	        	        	       0	(  2  0  0)	  0  1
     59.2341	        	        	        	        	    -503	(  2  0  0)	  0  1
     59.6297	        	        	        	        	       0	(  2  0  1)	  0  1
     59.6297	        	        	        	        	    -503	(  2  0  1)	  0  1
     60.1280	        	        	        	        	       0	(  1  0  8)	  0  1
     60.1280	        	        	        	        	    -503	(  1  0  8)	  0  1
     60.8072	        	        	        	        	       0	(  2  0  2)	  0  1
     60.8072	        	        	        	        	    -503	(  2  0  2)	  0  1
     62.7404	        	        	        	        	       0	(  2  0  3)	  0  1
     62.7404	        	        	        	        	    -503	(  2  0  3)	  0  1
     65.1756	        	        	        	        	       0	(  1  1  6)	  0  1
     65.1756	        	        	        	        	    -503	(  1  1  6)	  0  1
     65.3925	        	        	        	        	       0	(  2  0  4)	  0  1
     65.3925	        	        	        	        	    -503	(  2  0  4)	  0  1
     66.0231	        	        	        	        	       0	(  0  0 10)	  0  1
     66.0231	        	        	        	        	    -503	(  0  0 10)	  0  1
     66.6102	        	        	        	        	       0	(  1  0  9)	  0  1
     66.6102	        	        	        	        	    -503	(  1  0  9)	  0  1
     68.7228	        	        	        	        	       0	(  2  0  5)	  0  1
     68.7228	        	        	        	        	    -503	(  2  0  5)	  0  1
     72.6949	        	        	        	        	       0	(  2  0  6)	  0  1
     72.6949	        	        	        	        	    -503	(  2  0  6)	  0  1
     73.5017	        	        	        	        	       0	(  1  0 10)	  0  1
     73.5017	        	        	        	        	    -503	(  1  0 10)	  0  1
     75.3261	        	        	        	        	       0	(  1  1  8)	  0  1
     75.3261	        	        	        	        	    -503	(  1  1  8)	  0  1
     77.2830	        	        	        	        	       0	(  2  0  7)	  0  1
     77.2830	        	        	        	        	    -503	(  2  0  7)	  0  1
     80.8471	        	        	        	        	       0	(  1  0 11)	  0  1
     80.8471	        	        	        	        	    -503	(  1  0 11)	  0  1
     81.6823	        	        	        	        	       0	(  0  0 12)	  0  1
     81.6823	        	        	        	        	    -503	(  0  0 12)	  0  1
     81.6987	        	        	        	        	       0	(  2  1  0)	  0  1
     81.6987	        	        	        	        	    -503	(  2  1  0)	  0  1
     82.0430	        	        	        	        	       0	(  2  1  1)	  0  1
     82.0430	        	        	        	        	    -503	(  2  1  1)	  0  1
     82.4783	        	        	        	        	       0	(  2  0  8)	  0  1
     82.4783	        	        	        	        	    -503	(  2  0  8)	  0  1
     83.0744	        	        	        	        	       0	(  2  1  2)	  0  1
     83.0744	        	        	        	        	    -503	(  2  1  2)	  0  1
     84.7884	        	        	        	        	       0	(  2  1  3)	  0  1
     84.7884	        	        	        	        	    -503	(  2  1  3)	  0  1
     87.1808	        	        	        	        	       0	(  2  1  4)	  0  1
     87.1808	        	        	        	        	    -503	(  2  1  4)	  0  1
     87.7565	        	        	        	        	       0	(  1  1 10)	  0  1
     87.7565	        	        	        	        	    -503	(  1  1 10)	  0  1
     88.2949	        	        	        	        	       0	(  2  0  9)	  0  1
     88.2949	        	        	        	        	    -503	(  2  0  9)	  0  1
     88.7264	        	        	        	        	       0	(  1  0 12)	  0  1
     88.7264	        	        	        	        	    -503	(  1  0 12)	  0  1
     90.2503	        	        	        	        	       0	(  2  1  5)	  0  1
     90.2503	        	        	        	        	    -503	(  2  1  5)	  0  1
     94.0042	        	        	        	        	       0	(  2  1  6)	  0  1
     94.0042	        	        	        	        	    -503	(  2  1  6)	  0  1
     94.7789	        	        	        	        	       0	(  2  0 10)	  0  1
     94.7789	        	        	        	        	    -503	(  2  0 10)	  0  1
     95.7690	        	        	        	        	       0	(  3  0  0)	  0  1
     95.7690	        	        	        	        	    -503	(  3  0  0)	  0  1
     96.1118	        	        	        	        	       0	(  3  0  1)	  0  1
     96.1118	        	        	        	        	    -503	(  3  0  1)	  0  1
     97.1417	        	        	        	        	       0	(  3  0  2)	  0  1
     97.1417	        	        	        	        	    -503	(  3  0  2)	  0  1
     97.2702	        	        	        	        	       0	(  1  0 13)	  0  1
     97.2702	        	        	        	        	    -503	(  1  0 13)	  0  1
     98.4647	        	        	        	        	       0	(  2  1  7)	  0  1
     98.4647	        	        	        	        	    -503	(  2  1  7)	  0  1
     98.8636	        	        	        	        	       0	(  3  0  3)	  0  1
     98.8636	        	        	        	        	    -503	(  3  0  3)	  0  1
     99.4840	        	        	        	        	       0	(  0  0 14)	  0  1
     99.4840	        	        	        	        	    -503	(  0  0 14)	  0  1
    101.2884	        	        	        	        	       0	(  3  0  4)	  0  1
    101.2884	        	        	        	        	    -503	(  3  0  4)	  0  1
    102.0228	        	        	        	        	       0	(  2  0 11)	  0  1
    102.0228	        	        	        	        	    -503	(  2  0 11)	  0  1
    102.8686	        	        	        	        	       0	(  1  1 12)	  0  1
    102.8686	        	        	        	        	    -503	(  1  1 12)	  0  1
    103.6792	        	        	        	        	       0	(  2  1  8)	  0  1
    103.6792	        	        	        	        	    -503	(  2  1  8)	  0  1
    104.4374	        	        	        	        	       0	(  3  0  5)	  0  1
    104.4374	        	        	        	        	    -503	(  3  0  5)	  0  1
    106.6945	        	        	        	        	       0	(  1  0 14)	  0  1
    106.6945	        	        	        	        	    -503	(  1  0 14)	  0  1
    108.3493	        	        	        	        	       0	(  3  0  6)	  0  1
    108.3493	        	        	        	        	    -503	(  3  0  6)	  0  1
    109.7363	        	        	        	        	       0	(  2  1  9)	  0  1
    109.7363	        	        	        	        	    -503	(  2  1  9)	  0  1
    110.1955	        	        	        	        	       0	(  2  0 12)	  0  1
    110.1955	        	        	        	        	    -503	(  2  0 12)	  0  1
    113.0922	        	        	        	        	       0	(  3  0  7)	  0  1
    113.0922	        	        	        	        	    -503	(  3  0  7)	  0  1
    116.7968	        	        	        	        	       0	(  2  1 10)	  0  1
    116.7968	        	        	        	        	    -503	(  2  1 10)	  0  1
    117.3834	        	        	        	        	       0	(  1  0 15)	  0  1
    117.3834	        	        	        	        	    -503	(  1  0 15)	  0  1
    117.9076	        	        	        	        	       0	(  2  2  0)	  0  1
    117.9076	        	        	        	        	    -503	(  2  2  0)	  0  1
    118.7859	        	        	        	        	       0	(  3  0  8)	  0  1
    118.7859	        	        	        	        	    -503	(  3  0  8)	  0  1
    119.4635	        	        	        	        	       0	(  2  2  2)	  0  1
    119.4635	        	        	        	        	    -503	(  2  2  2)	  0  1
    119.6102	        	        	        	        	       0	(  2  0 13)	  0  1
    119.6102	        	        	        	        	    -503	(  2  0 13)	  0  1
    121.4674	        	        	        	        	       0	(  0  0 16)	  0  1
    121.4674	        	        	        	        	    -503	(  0  0 16)	  0  1
    122.1641	        	        	        	        	       0	(  1  1 14)	  0  1
    122.1641	        	        	        	        	    -503	(  1  1 14)	  0  1
    124.2874	        	        	        	        	       0	(  2  2  4)	  0  1
    124.2874	        	        	        	        	    -503	(  2  2  4)	  0  1
    125.1632	        	        	        	        	       0	(  2  1 11)	  0  1
    125.1632	        	        	        	        	    -503	(  2  1 11)	  0  1
    125.6475	        	        	        	        	       0	(  3  0  9)	  0  1
    125.6475	        	        	        	        	    -503	(  3  0  9)	  0  1
    126.2009	        	        	        	        	       0	(  3  1  0)	  0  1
    126.2009	        	        	        	        	    -503	(  3  1  0)	  0  1
    126.6250	        	        	        	        	       0	(  3  1  1)	  0  1
    126.6250	        	        	        	        	    -503	(  3  1  1)	  0  1
    127.9119	        	        	        	        	       0	(  3  1  2)	  0  1
    127.9119	        	        	        	        	    -503	(  3  1  2)	  0  1
    130.1086	        	        	        	        	       0	(  3  1  3)	  0  1
    130.1086	        	        	        	        	    -503	(  3  1  3)	  0  1
    130.1359	        	        	        	        	       0	(  1  0 16)	  0  1
    130.1359	        	        	        	        	    -503	(  1  0 16)	  0  1
    130.9150	        	        	        	        	       0	(  2  0 14)	  0  1
    130.9150	        	        	        	        	    -503	(  2  0 14)	  0  1
    133.0397	        	        	        	        	       0	(  2  2  6)	  0  1
    133.0397	        	        	        	        	    -503	(  2  2  6)	  0  1
    133.3104	        	        	        	        	       0	(  3  1  4)	  0  1
    133.3104	        	        	        	        	    -503	(  3  1  4)	  0  1
    134.1073	        	        	        	        	       0	(  3  0 10)	  0  1
    134.1073	        	        	        	        	    -503	(  3  0 10)	  0  1
    135.4755	        	        	        	        	       0	(  2  1 12)	  0  1
    135.4755	        	        	        	        	    -503	(  2  1 12)	  0  1
    137.6966	        	        	        	        	       0	(  3  1  5)	  0  1
    137.6966	        	        	        	        	    -503	(  3  1  5)	  0  1
    143.6268	        	        	        	        	       0	(  3  1  6)	  0  1
    143.6268	        	        	        	        	    -503	(  3  1  6)	  0  1
    145.2047	        	        	        	        	       0	(  3  0 11)	  0  1
    145.2047	        	        	        	        	    -503	(  3  0 11)	  0  1
    145.8743	        	        	        	        	       0	(  2  0 15)	  0  1
    145.8743	        	        	        	        	    -503	(  2  0 15)	  0  1
    147.2798	        	        	        	        	       0	(  1  0 17)	  0  1
    147.2798	        	        	        	        	    -503	(  1  0 17)	  0  1
    148.1505	        	        	        	        	       0	(  2  2  8)	  0  1
    148.1505	        	        	        	        	    -503	(  2  2  8)	  0  1
    149.5439	        	        	        	        	       0	(  2  1 13)	  0  1
    149.5439	        	        	        	        	    -503	(  2  1 13)	  0  1
    151.9723	        	        	        	        	       0	(  3  1  7)	  0  1
    151.9723	        	        	        	        	    -503	(  3  1  7)	  0  1
    152.8716	        	        	        	        	       0	(  1  1 16)	  0  1
    152.8716	        	        	        	        	    -503	(  1  1 16)	  0  1
    158.0326	        	        	        	        	       0	(  0  0 18)	  0  1
    158.0326	        	        	        	        	    -503	(  0  0 18)	  0  1
    163.4363	        	        	        	        	       0	(  3  0 12)	  0  1
    163.4363	        	        	        	        	    -503	(  3  0 12)	  0  1
    163.4938	        	        	        	        	       0	(  4  0  0)	  0  1
    163.4938	        	        	        	        	    -503	(  4  0  0)	  0  1
    164.7467	        	        	        	        	       0	(  4  0  1)	  0  1
    164.7467	        	        	        	        	    -503	(  4  0  1)	  0  1
    166.4944	        	        	        	        	       0	(  3  1  8)	  0  1
    166.4944	        	        	        	        	    -503	(  3  1  8)	  0  1
    169.3411	        	        	        	        	       0	(  4  0  2)	  0  1
    169.3411	        	        	        	        	    -503	(  4  0  2)	  0  1
