MSG Master    CELL:    5.88582   5.88582  23.13124   90.0000   90.0000  120.0000   SPGR: P 63/m m c             TEMP:    605.05
  2   1280     2.52000     0.00000    -0.09660     0.00000     0.00000    0
    96    96     0     0     2
       0.00000      10.00000
     125.00000     130.00000
 2Theta	Yobs	Ycal	Yobs-Ycal	Backg	Posr	(hkl)	K
      0.7700	    0.00	  807.13	-1923.48	  677.75
      0.8700	    0.00	  805.58	-1923.48	  676.19
      0.9700	   50.00	  804.03	-1923.48	  674.64
      1.0700	   38.00	  802.48	-1923.48	  673.10
      1.1700	   53.00	  800.95	-1923.48	  671.56
      1.2700	   48.00	  799.42	-1923.48	  670.03
      1.3700	   51.00	  797.89	-1923.48	  668.51
      1.4700	   97.00	  796.38	-1923.48	  666.99
      1.5700	  273.00	  794.86	-1923.48	  665.48
      1.6700	  435.00	  793.36	-1923.48	  663.98
      1.7700	  605.00	  791.86	-1923.48	  662.48
      1.8700	  677.00	  790.37	-1923.48	  660.98
      1.9700	  734.00	  788.88	-1923.48	  659.50
      2.0700	  802.00	  787.40	-1923.48	  658.02
      2.1700	  766.00	  785.93	-1923.48	  656.54
      2.2700	  781.00	  784.46	-1923.48	  655.08
      2.3700	  793.00	  783.00	-1923.48	  653.61
      2.4700	  751.00	  781.54	-1923.48	  652.16
      2.5700	  708.00	  780.09	-1923.48	  650.71
      2.6700	  713.00	  778.65	-1923.48	  649.27
      2.7700	  648.00	  777.21	-1923.48	  647.83
      2.8700	  607.00	  775.78	-1923.48	  646.40
      2.9700	  609.00	  774.36	-1923.48	  644.98
      3.0700	  613.00	  772.94	-1923.48	  643.56
      3.1700	  634.00	  771.53	-1923.48	  642.15
      3.2700	  689.00	  770.12	-1923.48	  640.74
      3.3700	  900.00	  768.72	-1923.48	  639.34
      3.4700	 1021.00	  767.33	-1923.48	  637.95
      3.5700	 1188.00	  765.94	-1923.48	  636.56
      3.6700	 1336.00	  764.56	-1923.48	  635.18
      3.7700	 1405.00	  763.18	-1923.48	  633.80
      3.8700	 1519.00	  761.81	-1923.48	  632.43
      3.9700	 1539.00	  760.45	-1923.48	  631.07
      4.0700	 1628.00	  759.09	-1923.48	  629.71
      4.1700	 1642.00	  757.74	-1923.48	  628.36
      4.2700	 1694.00	  756.40	-1923.48	  627.01
      4.3700	 1698.00	  755.06	-1923.48	  625.67
      4.4700	 1564.00	  753.72	-1923.48	  624.34
      4.5700	 1498.00	  752.39	-1923.48	  623.01
      4.6700	 1487.00	  751.07	-1923.48	  621.69
      4.7700	 1369.00	  749.76	-1923.48	  620.37
      4.8700	 1409.00	  748.45	-1923.48	  619.06
      4.9700	 1384.00	  747.14	-1923.48	  617.76
      5.0700	 1299.00	  745.84	-1923.48	  616.46
      5.1700	 1338.00	  744.55	-1923.48	  615.17
      5.2700	 1236.00	  743.26	-1923.48	  613.88
      5.3700	 1188.00	  741.98	-1923.48	  612.60
      5.4700	 1220.00	  740.71	-1923.48	  611.33
      5.5700	 1130.00	  739.44	-1923.48	  610.06
      5.6700	 1180.00	  738.18	-1923.48	  608.79
      5.7700	 1138.00	  736.92	-1923.48	  607.54
      5.8700	 1080.00	  735.67	-1923.48	  606.28
      5.9700	 1068.00	  734.42	-1923.48	  605.04
      6.0700	 1104.00	  733.18	-1923.48	  603.80
      6.1700	 1028.00	  731.95	-1923.48	  602.56
      6.2700	 1000.00	  730.72	-1923.48	  601.34
      6.3700	  968.00	  729.50	-1923.48	  600.11
      6.4700	  996.00	  728.28	-1923.48	  598.90
      6.5700	 1028.00	  727.07	-1923.48	  597.68
      6.6700	  939.00	  725.86	-1923.48	  596.48
      6.7700	  851.00	  724.66	-1923.48	  595.28
      6.8700	  882.00	  723.47	-1923.48	  594.08
      6.9700	  882.00	  722.28	-1923.48	  592.89
      7.0700	  832.00	  721.09	-1923.48	  591.71
      7.1700	  833.00	  719.92	-1923.48	  590.53
      7.2700	  830.00	  718.75	-1923.48	  589.36
      7.3700	  899.00	  717.58	-1923.48	  588.20
      7.4700	  811.00	  716.42	-1923.48	  587.03
      7.5700	  838.00	  715.26	-1923.48	  585.88
      7.6700	  826.00	  714.11	-1923.48	  584.73
      7.7700	  816.00	  712.97	-1923.48	  583.59
      7.8700	  751.00	  711.83	-1923.48	  582.45
      7.9700	  819.00	  710.70	-1923.48	  581.31
      8.0700	  785.00	  709.57	-1923.48	  580.19
      8.1700	  779.00	  708.45	-1923.48	  579.06
      8.2700	  764.00	  707.33	-1923.48	  577.95
      8.3700	  702.00	  706.22	-1923.48	  576.84
      8.4700	  754.00	  705.11	-1923.48	  575.73
      8.5700	  773.00	  704.01	-1923.48	  574.63
      8.6700	  783.00	  702.92	-1923.48	  573.54
      8.7700	  706.00	  701.83	-1923.48	  572.45
      8.8700	  735.00	  700.75	-1923.48	  571.36
      8.9700	  722.00	  699.67	-1923.48	  570.28
      9.0700	  771.00	  698.59	-1923.48	  569.21
      9.1700	  766.00	  697.53	-1923.48	  568.14
      9.2700	  724.00	  696.46	-1923.48	  567.08
      9.3700	  734.00	  695.41	-1923.48	  566.02
      9.4700	  722.00	  694.35	-1923.48	  564.97
      9.5700	  768.00	  693.31	-1923.48	  563.92
      9.6700	  757.00	  692.27	-1923.48	  562.88
      9.7700	  691.00	  691.23	-1923.48	  561.85
      9.8700	  719.00	  690.20	-1923.48	  560.82
      9.9700	  698.00	  689.17	-1923.48	  559.79
     10.0700	  700.00	  690.35	-1913.83	  558.77
     10.1700	  650.00	  689.58	-1963.06	  557.75
     10.2700	  697.00	  688.86	-1915.34	  556.74
     10.3700	  723.00	  688.22	-1888.69	  555.74
     10.4700	  717.00	  687.67	-1894.15	  554.74
     10.5700	  723.00	  687.28	-1887.76	  553.75
     10.6700	  694.00	  687.10	-1916.57	  552.76
     10.7700	  658.00	  687.21	-1952.69	  551.77
     10.8700	  666.00	  687.73	-1945.21	  550.80
     10.9700	  722.00	  688.72	-1890.20	  549.82
     11.0700	  714.00	  690.23	-1899.70	  548.85
     11.1700	  682.00	  692.26	-1933.74	  547.89
     11.2700	  745.00	  694.86	-1873.33	  546.93
     11.3700	  667.00	  698.06	-1954.54	  545.98
     11.4700	  683.00	  701.99	-1942.47	  545.03
     11.5700	  735.00	  706.81	-1895.29	  544.09
     11.6700	  731.00	  712.76	-1905.23	  543.15
     11.7700	  753.00	  720.14	-1890.62	  542.22
     11.8700	  757.00	  729.21	-1895.68	  541.29
     11.9700	  786.00	  739.90	-1877.38	  540.36
     12.0700	  823.00	  751.41	-1851.89	  539.45
     12.1700	  794.00	  761.63	-1891.11	  538.53
     12.2700	  807.00	  766.69	-1883.17	  537.62
     12.3700	  773.00	  761.83	-1912.31	  536.72
     12.4700	  748.00	  746.06	-1921.54	  535.82
     12.5700	  757.00	  725.39	-1891.87	  534.93
     12.6700	  740.00	  706.60	-1890.08	  534.04
     12.7700	  648.00	  692.26	-1967.74	  533.16
     12.8700	  675.00	  682.29	-1930.76	  532.28
     12.9700	  663.00	  675.61	-1936.09	  531.41
     13.0700	  626.00	  671.10	-1968.58	  530.54
     13.1700	  649.00	  667.89	-1942.37	  529.67
     13.2700	  594.00	  665.42	-1994.90	  528.81
     13.3700	  656.00	  663.40	-1930.88	  527.96
     13.4700	  653.00	  661.65	-1932.13	  527.11
     13.5700	  643.00	  660.11	-1940.59	  526.26
     13.6700	  622.00	  658.70	-1960.18	  525.42
     13.7700	  613.00	  657.41	-1967.89	  524.59
     13.8700	  650.00	  656.20	-1929.67	  523.76
     13.9700	  662.00	  655.05	-1916.53	  522.93
     14.0700	  693.00	  653.96	-1884.44	  522.11
     14.1700	  682.00	  652.92	-1894.40	  521.29
     14.2700	  649.00	  651.91	-1926.39	  520.48
     14.3700	  655.00	  650.93	-1919.41	  519.68
     14.4700	  659.00	  649.98	-1914.46	  518.87
     14.5700	  677.00	  649.05	-1895.53	  518.08
     14.6700	  660.00	  648.15	-1911.63	  517.28
     14.7700	  607.00	  647.26	-1963.74	  516.49
     14.8700	  648.00	  646.39	-1921.86	  515.71
     14.9700	  607.00	  645.53	-1962.01	  514.93
     15.0700	  585.00	  644.68	-1983.16	  514.16
     15.1700	  646.00	  643.85	-1921.32	  513.39
     15.2700	  610.00	  643.02	-1956.50	  512.62
     15.3700	  606.00	  642.21	-1959.69	  511.86
     15.4700	  657.00	  641.40	-1907.88	  511.10
     15.5700	  600.00	  640.61	-1964.09	  510.35
     15.6700	  657.00	  639.82	-1906.30	  509.60
     15.7700	  591.00	  639.04	-1971.52	  508.86
     15.8700	  647.00	  638.27	-1914.75	  508.12
     15.9700	  645.00	  637.51	-1915.99	  507.39
     16.0700	  643.00	  636.75	-1917.23	  506.66
     16.1700	  622.00	  636.00	-1937.48	  505.93
     16.2700	  653.00	  635.25	-1905.73	  505.21
     16.3700	  607.00	  634.52	-1950.99	  504.50
     16.4700	  633.00	  633.78	-1924.26	  503.78
     16.5700	  599.00	  633.06	-1957.54	  503.08
     16.6700	  629.00	  632.34	-1926.82	  502.37
     16.7700	  669.00	  631.62	-1886.10	  501.67
     16.8700	  639.00	  630.91	-1915.39	  500.98
     16.9700	  643.00	  630.21	-1910.69	  500.29
     17.0700	  606.00	  629.51	-1946.99	  499.60
     17.1700	  657.00	  628.82	-1895.30	  498.92
     17.2700	  629.00	  628.13	-1922.61	  498.25
     17.3700	  605.00	  627.45	-1945.93	  497.57
     17.4700	  591.00	  626.77	-1959.25	  496.90
     17.5700	  612.00	  626.10	-1937.57	  496.24
     17.6700	  620.00	  625.43	-1928.91	  495.58
     17.7700	  619.00	  624.76	-1929.24	  494.92
     17.8700	  625.00	  624.11	-1922.58	  494.27
     17.9700	  610.00	  623.45	-1936.93	  493.62
     18.0700	  633.00	  622.80	-1913.28	  492.98
     18.1700	  608.00	  622.16	-1937.64	  492.34
     18.2700	  581.00	  621.52	-1964.00	  491.71
     18.3700	  596.00	  620.88	-1948.36	  491.08
     18.4700	  602.00	  620.25	-1941.73	  490.45
     18.5700	  596.00	  619.63	-1947.11	  489.83
     18.6700	  612.00	  619.01	-1930.49	  489.21
     18.7700	  601.00	  618.39	-1940.87	  488.59
     18.8700	  608.00	  620.09	-1935.57	  487.98
     18.9700	  620.00	  619.53	-1923.01	  487.38
     19.0700	  614.00	  618.98	-1928.46	  486.78
     19.1700	  640.00	  618.43	-1901.91	  486.18
     19.2700	  647.00	  617.89	-1894.37	  485.58
     19.3700	  633.00	  617.36	-1907.84	  484.99
     19.4700	  619.00	  616.83	-1921.31	  484.41
     19.5700	  635.00	  616.31	-1904.79	  483.83
     19.6700	  602.00	  615.79	-1937.27	  483.25
     19.7700	  568.00	  615.28	-1970.76	  482.67
     19.8700	  593.00	  614.78	-1945.26	  482.10
     19.9700	  636.00	  614.28	-1901.76	  481.54
     20.0700	  613.00	  613.83	-1924.31	  480.97
     20.1700	  630.00	  613.34	-1906.82	  480.42
     20.2700	  626.00	  612.87	-1910.35	  479.86
     20.3700	  618.00	  612.40	-1917.88	  479.31
     20.4700	  576.00	  611.94	-1959.42	  478.76
     20.5700	  613.00	  611.49	-1921.97	  478.22
     20.6700	  610.00	  611.04	-1924.52	  477.68
     20.7700	  597.00	  610.61	-1937.09	  477.15
     20.8700	  614.00	  610.18	-1919.66	  476.62
     20.9700	  603.00	  609.76	-1930.24	  476.09
     21.0700	  625.00	  609.35	-1907.83	  475.56
     21.1700	  572.00	  608.95	-1960.42	  475.04
     21.2700	  624.00	  608.55	-1908.03	  474.53
     21.3700	  597.00	  608.17	-1934.65	  474.01
     21.4700	  601.00	  607.80	-1930.28	  473.51
     21.5700	  627.00	  607.43	-1903.91	  473.00
     21.6700	  615.00	  607.08	-1915.56	  472.50
     21.7700	  641.00	  606.74	-1889.22	  472.00
     21.8700	  613.00	  606.42	-1916.89	  471.51
     21.9700	  649.00	  606.10	-1880.58	  471.02
     22.0700	  598.00	  605.80	-1931.28	  470.53
     22.1700	  647.00	  605.51	-1881.99	  470.05
     22.2700	  604.00	  605.43	-1924.91	  469.57
     22.3700	  638.00	  605.18	-1890.66	  469.09
     22.4700	  614.00	  604.94	-1914.42	  468.62
     22.5700	  641.00	  604.73	-1887.21	  468.15
     22.6700	  653.00	  604.54	-1875.02	  467.69
     22.7700	  625.00	  604.37	-1902.85	  467.22
     22.8700	  602.00	  604.23	-1925.71	  466.77
     22.9700	  582.00	  604.12	-1945.60	  466.31
     23.0700	  581.00	  604.04	-1946.52	  465.86
     23.1700	  606.00	  604.00	-1921.48	  465.41
     23.2700	  586.00	  604.01	-1941.49	  464.97
     23.3700	  630.00	  604.07	-1897.55	  464.53
     23.4700	  606.00	  604.19	-1921.67	  464.09
     23.5700	  572.00	  604.38	-1955.86	  463.66
     23.6700	  653.00	  604.67	-1875.15	  463.23
     23.7700	  621.00	  605.09	-1907.57	  462.80
     23.8700	  593.00	  605.70	-1936.18	  462.38
     23.9700	  623.00	  606.57	-1907.05	  461.96
     24.0700	  606.00	  607.84	-1925.32	  461.54
     24.1700	  621.00	  609.75	-1912.23	  461.13
     24.2700	  645.00	  612.61	-1891.08	  460.72
     24.3700	  656.00	  616.77	-1884.25	  460.31
     24.4700	  709.00	  622.74	-1837.22	  459.91
     24.5700	  636.00	  630.67	-1918.15	  459.51
     24.6700	  650.00	  640.30	-1913.78	  459.11
     24.7700	  662.00	  650.73	-1912.20	  458.72
     24.8700	  680.00	  659.95	-1903.43	  458.33
     24.9700	  713.00	  664.80	-1875.28	  457.94
     25.0700	  694.00	  662.31	-1891.79	  457.56
     25.1700	  727.00	  653.19	-1849.67	  457.18
     25.2700	  636.00	  641.99	-1929.47	  456.80
     25.3700	  718.00	  632.29	-1837.77	  456.43
     25.4700	  655.00	  625.38	-1893.86	  456.06
     25.5700	  615.00	  621.16	-1929.63	  455.69
     25.6700	  663.00	  619.01	-1879.49	  455.33
     25.7700	  668.00	  618.32	-1873.79	  454.97
     25.8700	  666.00	  618.59	-1876.07	  454.61
     25.9700	  654.00	  619.55	-1889.03	  454.26
     26.0700	  632.00	  621.04	-1912.52	  453.90
     26.1700	  601.00	  623.03	-1945.51	  453.56
     26.2700	  659.00	  625.51	-1889.99	  453.21
     26.3700	  554.00	  628.52	-1998.00	  452.87
     26.4700	  601.00	  632.14	-1954.62	  452.53
     26.5700	  654.00	  636.46	-1905.94	  452.19
     26.6700	  685.00	  641.63	-1880.11	  451.86
     26.7700	  635.00	  647.82	-1936.30	  451.53
     26.8700	  644.00	  655.28	-1934.76	  451.20
     26.9700	  672.00	  664.33	-1915.81	  450.88
     27.0700	  685.00	  675.44	-1913.92	  450.56
     27.1700	  669.00	  689.25	-1943.73	  450.24
     27.2700	  668.00	  706.74	-1962.21	  449.93
     27.3700	  781.00	  729.54	-1872.02	  449.61
     27.4700	  700.00	  760.89	-1984.37	  449.30
     27.5700	  803.00	  807.74	-1928.21	  449.00
     27.6700	  776.00	  884.76	-2032.24	  448.69
     27.7700	  823.00	 1020.10	-2120.58	  448.39
     27.8700	  991.00	 1260.81	-2193.29	  448.10
     27.9700	 1260.00	 1671.91	-2335.39	  447.80
     28.0700	 1925.00	 2317.69	-2316.17	  447.51
     28.1700	 3043.00	 3216.47	-2096.95	  447.22
     28.2700	 4533.00	 4266.31	-1656.79	  446.94
     28.3700	 5793.00	 5174.95	-1305.43	  446.65
     28.4700	 6137.00	 5493.18	-1279.66	  446.37
     28.5700	 5435.00	 4963.85	-1452.33	  446.09
     28.6700	 3993.00	 4003.10	-1933.58	  445.82
     28.7700	 2933.00	 3242.85	-2233.33	  445.55
     28.8700	 2661.00	 2946.33	-2208.80	  445.28
     28.9700	 2932.00	 3038.60	-2030.08	  445.01
     29.0700	 3543.00	 3256.75	-1637.23	  444.75
     29.1700	 3582.00	 3278.92	-1620.39	  444.49
     29.2700	 2998.00	 2913.98	-1839.46	  444.23
     29.3700	 2236.00	 2304.22	-1991.70	  443.97
     29.4700	 1605.00	 1720.00	-2038.48	  443.72
     29.5700	 1138.00	 1292.39	-2077.87	  443.47
     29.6700	  994.00	 1028.04	-1957.52	  443.22
     29.7700	  858.00	  881.01	-1946.49	  442.98
     29.8700	  794.00	  801.00	-1930.48	  442.73
     29.9700	  786.00	  754.19	-1891.67	  442.49
     30.0700	  758.00	  723.40	-1888.87	  442.26
     30.1700	  680.00	  701.22	-1944.70	  442.02
     30.2700	  680.00	  684.62	-1928.10	  441.79
     30.3700	  702.00	  672.27	-1893.75	  441.56
     30.4700	  662.00	  663.75	-1925.22	  441.33
     30.5700	  678.00	  659.26	-1904.74	  441.11
     30.6700	  642.00	  659.53	-1941.00	  440.89
     30.7700	  690.00	  665.27	-1898.75	  440.67
     30.8700	  662.00	  676.33	-1937.81	  440.45
     30.9700	  719.00	  690.60	-1895.08	  440.24
     31.0700	  713.00	  703.27	-1913.75	  440.02
     31.1700	  741.00	  707.08	-1889.56	  439.81
     31.2700	  728.00	  696.37	-1891.85	  439.61
     31.3700	  700.00	  674.52	-1898.00	  439.40
     31.4700	  689.00	  650.96	-1885.44	  439.20
     31.5700	  640.00	  631.72	-1915.20	  439.00
     31.6700	  658.00	  618.25	-1883.72	  438.80
     31.7700	  662.00	  609.63	-1871.11	  438.61
     31.8700	  646.00	  604.29	-1881.77	  438.42
     31.9700	  584.00	  600.85	-1940.33	  438.23
     32.0700	  645.00	  598.47	-1876.95	  438.04
     32.1700	  636.00	  596.69	-1884.17	  437.85
     32.2700	  626.00	  595.34	-1892.82	  437.67
     32.3700	  587.00	  594.33	-1930.81	  437.49
     32.4700	  616.00	  593.62	-1901.10	  437.31
     32.5700	  585.00	  593.20	-1931.68	  437.13
     32.6700	  601.00	  593.07	-1915.55	  436.96
     32.7700	  601.00	  593.29	-1915.77	  436.79
     32.8700	  591.00	  593.85	-1926.32	  436.62
     32.9700	  650.00	  594.83	-1868.31	  436.45
     33.0700	  586.00	  596.36	-1933.84	  436.29
     33.1700	  615.00	  598.61	-1907.09	  436.12
     33.2700	  601.00	  601.93	-1924.41	  435.96
     33.3700	  609.00	  606.98	-1921.46	  435.80
     33.4700	  620.00	  615.02	-1918.50	  435.65
     33.5700	  691.00	  628.43	-1860.91	  435.49
     33.6700	  638.00	  651.09	-1936.57	  435.34
     33.7700	  679.00	  688.34	-1932.82	  435.19
     33.8700	  728.00	  745.56	-1941.04	  435.04
     33.9700	  817.00	  824.61	-1931.09	  434.90
     34.0700	  987.00	  918.83	-1855.31	  434.75
     34.1700	 1077.00	 1009.15	-1855.63	  434.61
     34.2700	 1153.00	 1064.27	-1834.75	  434.47
     34.3700	 1146.00	 1053.20	-1830.68	  434.34
     34.4700	 1045.00	  977.00	-1855.48	  434.20
     34.5700	  869.00	  873.73	-1928.21	  434.07
     34.6700	  808.00	  778.80	-1894.28	  433.94
     34.7700	  719.00	  706.94	-1911.42	  433.81
     34.8700	  719.00	  659.03	-1863.51	  433.68
     34.9700	  645.00	  629.75	-1908.22	  433.56
     35.0700	  646.00	  612.53	-1890.01	  433.43
     35.1700	  635.00	  602.19	-1890.67	  433.31
     35.2700	  669.00	  595.51	-1849.99	  433.19
     35.3700	  558.00	  590.80	-1956.28	  433.07
     35.4700	  598.00	  587.24	-1912.72	  432.96
     35.5700	  601.00	  584.46	-1906.94	  432.84
     35.6700	  579.00	  582.22	-1926.70	  432.73
     35.7700	  540.00	  580.39	-1963.87	  432.62
     35.8700	  577.00	  578.89	-1925.37	  432.52
     35.9700	  595.00	  577.64	-1906.12	  432.41
     36.0700	  585.00	  576.61	-1915.09	  432.31
     36.1700	  589.00	  575.76	-1910.24	  432.20
     36.2700	  560.00	  575.07	-1938.54	  432.10
     36.3700	  601.00	  574.51	-1896.99	  432.00
     36.4700	  563.00	  574.09	-1934.57	  431.91
     36.5700	  608.00	  573.79	-1889.27	  431.81
     36.6700	  578.00	  573.62	-1919.10	  431.72
     36.7700	  574.00	  573.59	-1923.07	  431.63
     36.8700	  580.00	  573.93	-1917.41	  431.54
     36.9700	  503.00	  574.74	-1995.22	  431.45
     37.0700	  595.00	  575.34	-1903.81	  431.36
     37.1700	  581.00	  576.30	-1918.78	  431.28
     37.2700	  598.00	  577.81	-1903.29	  431.20
     37.3700	  605.00	  580.19	-1898.67	  431.11
     37.4700	  605.00	  583.92	-1902.40	  431.04
     37.5700	  569.00	  589.77	-1944.25	  430.96
     37.6700	  613.00	  598.79	-1909.27	  430.88
     37.7700	  584.00	  612.11	-1951.59	  430.81
     37.8700	  610.00	  630.50	-1943.98	  430.73
     37.9700	  614.00	  653.66	-1963.13	  430.66
     38.0700	  659.00	  679.17	-1943.65	  430.59
     38.1700	  687.00	  702.35	-1938.83	  430.53
     38.2700	  712.00	  714.59	-1926.07	  430.46
     38.3700	  699.00	  711.38	-1935.86	  430.39
     38.4700	  638.00	  691.11	-1976.59	  430.33
     38.5700	  657.00	  662.47	-1928.95	  430.27
     38.6700	  638.00	  634.64	-1920.12	  430.21
     38.7700	  573.00	  612.22	-1962.70	  430.15
     38.8700	  580.00	  596.21	-1939.68	  430.09
     38.9700	  560.00	  585.72	-1949.19	  430.04
     39.0700	  542.00	  579.21	-1960.69	  429.98
     39.1700	  583.00	  575.21	-1915.69	  429.93
     39.2700	  580.00	  572.66	-1916.14	  429.88
     39.3700	  559.00	  570.92	-1935.39	  429.83
     39.4700	  556.00	  569.64	-1937.12	  429.78
     39.5700	  596.00	  568.65	-1896.13	  429.73
     39.6700	  578.00	  567.05	-1912.53	  429.69
     39.7700	  610.00	  566.43	-1879.91	  429.65
     39.8700	  571.00	  565.92	-1918.40	  429.60
     39.9700	  541.00	  565.51	-1947.98	  429.56
     40.0700	  537.00	  565.17	-1951.65	  429.52
     40.1700	  578.00	  564.89	-1910.37	  429.48
     40.2700	  555.00	  564.67	-1933.15	  429.45
     40.3700	  564.00	  564.49	-1923.97	  429.41
     40.4700	  531.00	  564.36	-1956.84	  429.38
     40.5700	  545.00	  564.27	-1942.75	  429.34
     40.6700	  571.00	  564.74	-1917.22	  429.31
     40.7700	  549.00	  564.73	-1939.21	  429.28
     40.8700	  577.00	  564.75	-1911.23	  429.25
     40.9700	  542.00	  564.81	-1946.29	  429.22
     41.0700	  588.00	  564.91	-1900.39	  429.20
     41.1700	  540.00	  565.06	-1948.54	  429.17
     41.2700	  568.00	  565.31	-1920.79	  429.15
     41.3700	  585.00	  565.57	-1904.05	  429.13
     41.4700	  576.00	  565.90	-1913.38	  429.10
     41.5700	  562.00	  566.31	-1927.79	  429.08
     41.6700	  556.00	  566.84	-1934.32	  429.06
     41.7700	  549.00	  567.52	-1942.00	  429.05
     41.8700	  545.00	  568.41	-1946.89	  429.03
     41.9700	  563.00	  569.65	-1930.13	  429.01
     42.0700	  515.00	  571.46	-1979.94	  429.00
     42.1700	  578.00	  574.25	-1919.73	  428.99
     42.2700	  533.00	  578.67	-1969.15	  428.97
     42.3700	  585.00	  585.61	-1924.09	  428.96
     42.4700	  591.00	  596.07	-1928.55	  428.95
     42.5700	  595.00	  610.74	-1939.22	  428.94
     42.6700	  571.00	  629.54	-1982.02	  428.94
     42.7700	  605.00	  650.66	-1969.14	  428.93
     42.8700	  603.00	  669.99	-1990.47	  428.92
     42.9700	  680.00	  681.35	-1924.83	  428.92
     43.0700	  638.00	  679.53	-1965.01	  428.91
     43.1700	  603.00	  665.07	-1985.55	  428.91
     43.2700	  676.00	  644.28	-1891.75	  428.91
     43.3700	  643.00	  623.35	-1903.83	  428.91
     43.4700	  602.00	  605.69	-1927.17	  428.91
     43.5700	  595.00	  592.46	-1920.94	  428.91
     43.6700	  606.00	  583.37	-1900.85	  428.91
     43.7700	  561.00	  577.52	-1940.00	  428.92
     43.8700	  619.00	  574.08	-1878.56	  428.92
     43.9700	  585.00	  571.83	-1910.31	  428.93
     44.0700	  591.00	  570.37	-1902.85	  428.93
     44.1700	  613.00	  569.39	-1879.86	  428.94
     44.2700	  584.00	  568.68	-1908.16	  428.95
     44.3700	  597.00	  568.15	-1894.63	  428.96
     44.4700	  588.00	  567.76	-1903.24	  428.97
     44.5700	  583.00	  567.47	-1907.95	  428.98
     44.6700	  579.00	  567.26	-1911.74	  428.99
     44.7700	  565.00	  567.11	-1925.59	  429.00
     44.8700	  565.00	  567.26	-1925.74	  429.02
     44.9700	  563.00	  567.22	-1927.70	  429.03
     45.0700	  618.00	  567.22	-1872.70	  429.05
     45.1700	  593.00	  567.26	-1897.74	  429.06
     45.2700	  552.00	  567.34	-1938.82	  429.08
     45.3700	  584.00	  567.44	-1906.92	  429.10
     45.4700	  560.00	  567.58	-1931.06	  429.11
     45.5700	  539.00	  567.75	-1952.23	  429.13
     45.6700	  585.00	  568.04	-1906.52	  429.15
     45.7700	  563.00	  568.27	-1928.75	  429.17
     45.8700	  589.00	  568.53	-1903.00	  429.20
     45.9700	  570.00	  568.82	-1922.29	  429.22
     46.0700	  614.00	  569.14	-1878.62	  429.24
     46.1700	  597.00	  569.50	-1895.98	  429.26
     46.2700	  594.00	  569.91	-1899.39	  429.29
     46.3700	  594.00	  570.36	-1899.84	  429.31
     46.4700	  565.00	  570.97	-1929.45	  429.34
     46.5700	  572.00	  571.37	-1922.84	  429.36
     46.6700	  551.00	  572.01	-1944.49	  429.39
     46.7700	  574.00	  572.74	-1922.22	  429.42
     46.8700	  603.00	  573.57	-1894.05	  429.45
     46.9700	  589.00	  574.55	-1909.03	  429.48
     47.0700	  588.00	  575.73	-1911.21	  429.51
     47.1700	  565.00	  577.21	-1935.69	  429.54
     47.2700	  600.00	  579.17	-1902.65	  429.57
     47.3700	  584.00	  581.91	-1921.39	  429.60
     47.4700	  574.00	  585.86	-1935.34	  429.63
     47.5700	  572.00	  591.56	-1943.04	  429.66
     47.6700	  639.00	  599.57	-1884.05	  429.70
     47.7700	  598.00	  610.27	-1935.75	  429.73
     47.8700	  627.00	  623.56	-1920.04	  429.76
     47.9700	  646.00	  638.46	-1915.94	  429.80
     48.0700	  642.00	  652.78	-1934.26	  429.83
     48.1700	  669.00	  663.09	-1917.57	  429.87
     48.2700	  703.00	  666.00	-1886.48	  429.91
     48.3700	  659.00	  660.82	-1925.30	  429.94
     48.4700	  639.00	  650.81	-1935.28	  429.98
     48.5700	  620.00	  639.00	-1942.48	  430.02
     48.6700	  618.00	  628.58	-1934.06	  430.06
     48.7700	  614.00	  620.92	-1930.40	  430.10
     48.8700	  567.00	  616.41	-1972.89	  430.13
     48.9700	  576.00	  614.90	-1962.38	  430.17
     49.0700	  577.00	  616.01	-1962.49	  430.21
     49.1700	  526.00	  619.39	-2016.87	  430.26
     49.2700	  595.00	  624.90	-1953.38	  430.30
     49.3700	  648.00	  632.83	-1908.31	  430.34
     49.4700	  619.00	  644.18	-1948.66	  430.38
     49.5700	  631.00	  661.51	-1953.98	  430.42
     49.6700	  675.00	  690.42	-1938.90	  430.46
     49.7700	  717.00	  741.84	-1948.32	  430.51
     49.8700	  831.00	  833.95	-1926.43	  430.55
     49.9700	 1005.00	  991.56	-1910.04	  430.59
     50.0700	 1287.00	 1239.57	-1876.05	  430.64
     50.1700	 1692.00	 1589.15	-1820.63	  430.68
     50.2700	 2195.00	 2019.64	-1748.12	  430.73
     50.3700	 2588.00	 2463.34	-1798.82	  430.77
     50.4700	 2874.00	 2803.84	-1853.32	  430.82
     50.5700	 2907.00	 2912.26	-1928.74	  430.86
     50.6700	 2635.00	 2736.22	-2024.70	  430.91
     50.7700	 2336.00	 2355.09	-1942.57	  430.95
     50.8700	 1851.00	 1907.03	-1979.51	  431.00
     50.9700	 1388.00	 1498.65	-2034.13	  431.05
     51.0700	 1077.00	 1184.04	-2030.52	  431.09
     51.1700	  967.00	  972.73	-1929.21	  431.14
     51.2700	  840.00	  846.93	-1930.41	  431.19
     51.3700	  790.00	  778.98	-1912.46	  431.24
     51.4700	  769.00	  743.63	-1898.11	  431.28
     51.5700	  717.00	  723.50	-1929.98	  431.33
     51.6700	  716.00	  709.96	-1917.44	  431.38
     51.7700	  735.00	  700.53	-1889.01	  431.43
     51.8700	  734.00	  695.40	-1884.88	  431.48
     51.9700	  693.00	  694.72	-1925.20	  431.52
     52.0700	  664.00	  697.40	-1956.88	  431.57
     52.1700	  708.00	  700.86	-1916.34	  431.62
     52.2700	  692.00	  701.54	-1933.02	  431.67
     52.3700	  686.00	  696.83	-1934.31	  431.72
     52.4700	  665.00	  687.25	-1945.73	  431.77
     52.5700	  669.00	  675.90	-1930.38	  431.82
     52.6700	  650.00	  666.09	-1939.57	  431.87
     52.7700	  677.00	  660.34	-1906.81	  431.92
     52.8700	  676.00	  660.48	-1907.96	  431.97
     52.9700	  677.00	  668.25	-1914.72	  432.02
     53.0700	  691.00	  685.66	-1918.14	  432.07
     53.1700	  741.00	  715.30	-1897.78	  432.12
     53.2700	  766.00	  759.97	-1917.44	  432.17
     53.3700	  776.00	  821.81	-1969.29	  432.22
     53.4700	  876.00	  901.00	-1948.48	  432.27
     53.5700	  938.00	  994.03	-1979.51	  432.32
     53.6700	 1168.00	 1091.49	-1846.96	  432.37
     53.7700	 1244.00	 1176.74	-1856.22	  432.42
     53.8700	 1234.00	 1227.44	-1916.92	  432.47
     53.9700	 1303.00	 1225.75	-1846.23	  432.52
     54.0700	 1232.00	 1172.11	-1863.59	  432.57
     54.1700	 1131.00	 1085.17	-1877.65	  432.62
     54.2700	 1014.00	  987.60	-1897.08	  432.67
     54.3700	  845.00	  895.65	-1974.13	  432.72
     54.4700	  802.00	  817.96	-1939.44	  432.77
     54.5700	  767.00	  757.55	-1914.03	  432.82
     54.6700	  688.00	  713.74	-1949.22	  432.87
     54.7700	  703.00	  683.88	-1904.36	  432.92
     54.8700	  634.00	  664.56	-1954.04	  432.97
     54.9700	  658.00	  652.61	-1918.09	  433.02
     55.0700	  634.00	  645.57	-1935.05	  433.07
     55.1700	  646.00	  641.73	-1919.21	  433.12
     55.2700	  688.00	  640.07	-1875.55	  433.17
     55.3700	  667.00	  640.01	-1896.49	  433.22
     55.4700	  634.00	  641.28	-1930.76	  433.27
     55.5700	  627.00	  643.79	-1940.27	  433.32
     55.6700	  632.00	  647.60	-1939.08	  433.37
     55.7700	  633.00	  652.88	-1943.36	  433.42
     55.8700	  665.00	  659.98	-1918.46	  433.47
     55.9700	  639.00	  669.61	-1954.09	  433.52
     56.0700	  651.00	  683.08	-1955.56	  433.56
     56.1700	  686.00	  702.87	-1940.35	  433.61
     56.2700	  721.00	  733.32	-1935.80	  433.66
     56.3700	  795.00	  781.36	-1909.84	  433.71
     56.4700	  841.00	  857.01	-1939.49	  433.76
     56.5700	  978.00	  972.56	-1918.04	  433.80
     56.6700	 1141.00	 1140.30	-1922.78	  433.85
     56.7700	 1393.00	 1368.25	-1898.73	  433.90
     56.8700	 1682.00	 1654.29	-1895.77	  433.95
     56.9700	 2075.00	 1980.31	-1828.79	  433.99
     57.0700	 2346.00	 2306.69	-1884.17	  434.04
     57.1700	 2492.00	 2569.97	-2001.45	  434.09
     57.2700	 2718.00	 2696.08	-1901.56	  434.13
     57.3700	 2555.00	 2639.82	-2008.30	  434.18
     57.4700	 2311.00	 2422.04	-2034.52	  434.22
     57.5700	 2099.00	 2112.27	-1936.75	  434.27
     57.6700	 1719.00	 1781.99	-1986.47	  434.31
     57.7700	 1423.00	 1480.17	-1980.65	  434.36
     57.8700	 1117.00	 1232.59	-2039.07	  434.40
     57.9700	  960.00	 1046.85	-2010.33	  434.45
     58.0700	  864.00	  918.58	-1978.05	  434.49
     58.1700	  801.00	  837.56	-1960.04	  434.53
     58.2700	  745.00	  792.78	-1971.26	  434.58
     58.3700	  750.00	  775.79	-1949.27	  434.62
     58.4700	  763.00	  782.00	-1942.48	  434.66
     58.5700	  864.00	  809.86	-1869.34	  434.70
     58.6700	  876.00	  859.12	-1906.60	  434.75
     58.7700	  898.00	  928.69	-1954.17	  434.79
     58.8700	  986.00	 1014.53	-1952.01	  434.83
     58.9700	 1080.00	 1108.18	-1951.66	  434.87
     59.0700	 1100.00	 1196.69	-2020.17	  434.91
     59.1700	 1269.00	 1266.83	-1921.31	  434.95
     59.2700	 1275.00	 1311.88	-1960.36	  434.99
     59.3700	 1367.00	 1332.04	-1888.52	  435.03
     59.4700	 1277.00	 1328.08	-1974.56	  435.07
     59.5700	 1310.00	 1300.78	-1914.25	  435.11
     59.6700	 1273.00	 1257.02	-1907.50	  435.15
     59.7700	 1254.00	 1210.74	-1880.22	  435.18
     59.8700	 1292.00	 1175.85	-1807.33	  435.22
     59.9700	 1234.00	 1161.93	-1851.41	  435.26
     60.0700	 1218.00	 1175.27	-1880.75	  435.29
     60.1700	 1316.00	 1220.27	-1827.75	  435.33
     60.2700	 1313.00	 1297.80	-1908.28	  435.37
     60.3700	 1413.00	 1400.89	-1911.37	  435.40
     60.4700	 1564.00	 1512.04	-1871.52	  435.43
     60.5700	 1612.00	 1603.36	-1914.84	  435.47
     60.6700	 1606.00	 1642.30	-1959.78	  435.50
     60.7700	 1523.00	 1607.52	-2008.00	  435.54
     60.8700	 1487.00	 1504.21	-1940.69	  435.57
     60.9700	 1321.00	 1359.32	-1961.80	  435.60
     61.0700	 1203.00	 1203.30	-1923.78	  435.63
     61.1700	  994.00	 1059.07	-1988.55	  435.66
     61.2700	  894.00	  940.00	-1969.48	  435.69
     61.3700	  857.00	  851.49	-1917.97	  435.73
     61.4700	  800.00	  793.32	-1916.80	  435.76
     61.5700	  778.00	  762.61	-1908.09	  435.78
     61.6700	  796.00	  756.51	-1883.99	  435.81
     61.7700	  839.00	  773.93	-1858.41	  435.84
     61.8700	  802.00	  815.91	-1937.39	  435.87
     61.9700	  925.00	  884.74	-1883.22	  435.90
     62.0700	 1039.00	  981.89	-1866.37	  435.92
     62.1700	 1081.00	 1105.52	-1948.00	  435.95
     62.2700	 1347.00	 1248.16	-1824.63	  435.97
     62.3700	 1403.00	 1394.68	-1915.16	  436.00
     62.4700	 1576.00	 1521.65	-1869.13	  436.02
     62.5700	 1627.00	 1600.02	-1896.50	  436.05
     62.6700	 1491.00	 1606.37	-2038.84	  436.07
     62.7700	 1463.00	 1538.07	-1998.54	  436.09
     62.8700	 1402.00	 1415.63	-1937.11	  436.11
     62.9700	 1262.00	 1268.27	-1929.75	  436.14
     63.0700	 1066.00	 1120.84	-1978.32	  436.16
     63.1700	  943.00	  989.80	-1970.27	  436.18
     63.2700	  848.00	  883.46	-1958.94	  436.20
     63.3700	  786.00	  803.83	-1941.31	  436.22
     63.4700	  738.00	  748.39	-1933.87	  436.23
     63.5700	  683.00	  712.50	-1952.98	  436.25
     63.6700	  699.00	  691.17	-1915.65	  436.27
     63.7700	  714.00	  680.23	-1889.71	  436.29
     63.8700	  640.00	  676.98	-1960.46	  436.30
     63.9700	  677.00	  680.38	-1926.86	  436.32
     64.0700	  722.00	  690.70	-1892.18	  436.33
     64.1700	  753.00	  709.47	-1879.95	  436.35
     64.2700	  796.00	  738.65	-1866.13	  436.36
     64.3700	  760.00	  782.03	-1945.50	  436.37
     64.4700	  927.00	  841.72	-1838.20	  436.38
     64.5700	  872.00	  919.18	-1970.66	  436.40
     64.6700	 1060.00	 1013.54	-1877.02	  436.41
     64.7700	 1178.00	 1120.45	-1865.93	  436.42
     64.8700	 1227.00	 1230.97	-1927.45	  436.42
     64.9700	 1323.00	 1331.45	-1931.93	  436.43
     65.0700	 1363.00	 1405.81	-1966.29	  436.44
     65.1700	 1472.00	 1440.52	-1892.00	  436.45
     65.2700	 1353.00	 1428.60	-1999.08	  436.46
     65.3700	 1357.00	 1373.21	-1939.69	  436.46
     65.4700	 1190.00	 1286.47	-2019.95	  436.47
     65.5700	 1123.00	 1184.91	-1985.39	  436.47
     65.6700	 1032.00	 1082.52	-1974.00	  436.47
     65.7700	  958.00	  988.93	-1954.41	  436.48
     65.8700	  887.00	  908.76	-1945.24	  436.48
     65.9700	  812.00	  843.19	-1954.67	  436.48
     66.0700	  744.00	  791.58	-1971.06	  436.48
     66.1700	  748.00	  752.42	-1927.90	  436.48
     66.2700	  720.00	  723.50	-1926.97	  436.48
     66.3700	  709.00	  702.70	-1917.18	  436.48
     66.4700	  666.00	  688.13	-1945.61	  436.48
     66.5700	  651.00	  678.25	-1950.73	  436.47
     66.6700	  670.00	  672.04	-1925.52	  436.47
     66.7700	  659.00	  668.84	-1933.32	  436.47
     66.8700	  629.00	  668.28	-1962.75	  436.46
     66.9700	  623.00	  670.26	-1970.74	  436.46
     67.0700	  706.00	  675.14	-1892.62	  436.45
     67.1700	  677.00	  683.44	-1929.92	  436.44
     67.2700	  700.00	  696.83	-1920.31	  436.43
     67.3700	  771.00	  717.51	-1869.99	  436.42
     67.4700	  737.00	  749.31	-1935.79	  436.41
     67.5700	  797.00	  797.38	-1923.86	  436.40
     67.6700	  889.00	  868.18	-1902.66	  436.39
     67.7700	  923.00	  968.73	-1969.21	  436.38
     67.8700	 1135.00	 1105.39	-1893.87	  436.37
     67.9700	 1359.00	 1281.65	-1846.13	  436.35
     68.0700	 1495.00	 1496.30	-1924.78	  436.34
     68.1700	 1808.00	 1740.93	-1856.41	  436.32
     68.2700	 2040.00	 1998.17	-1881.64	  436.31
     68.3700	 2130.00	 2240.51	-2033.99	  436.29
     68.4700	 2478.00	 2430.79	-1876.27	  436.27
     68.5700	 2554.00	 2529.66	-1899.13	  436.26
     68.6700	 2563.00	 2512.06	-1872.54	  436.24
     68.7700	 2239.00	 2382.64	-2067.12	  436.22
     68.8700	 2113.00	 2172.64	-1983.12	  436.19
     68.9700	 1985.00	 1922.21	-1860.69	  436.17
     69.0700	 1735.00	 1666.01	-1854.49	  436.15
     69.1700	 1463.00	 1428.60	-1889.08	  436.13
     69.2700	 1237.00	 1224.47	-1910.95	  436.10
     69.3700	 1079.00	 1059.69	-1904.17	  436.08
     69.4700	  956.00	  933.92	-1901.40	  436.05
     69.5700	  898.00	  842.48	-1867.96	  436.02
     69.6700	  873.00	  778.69	-1829.16	  436.00
     69.7700	  768.00	  735.52	-1891.00	  435.97
     69.8700	  747.00	  706.83	-1883.31	  435.94
     69.9700	  754.00	  687.80	-1857.28	  435.91
     70.0700	  745.00	  675.04	-1853.51	  435.88
     70.1700	  724.00	  666.30	-1865.78	  435.85
     70.2700	  695.00	  660.21	-1888.69	  435.81
     70.3700	  714.00	  656.00	-1865.48	  435.78
     70.4700	  686.00	  653.19	-1890.67	  435.75
     70.5700	  695.00	  651.59	-1880.07	  435.71
     70.6700	  722.00	  651.11	-1852.59	  435.67
     70.7700	  650.00	  651.80	-1925.28	  435.64
     70.8700	  702.00	  653.86	-1875.34	  435.60
     70.9700	  676.00	  657.65	-1905.13	  435.56
     71.0700	  676.00	  663.67	-1911.14	  435.52
     71.1700	  702.00	  673.39	-1894.87	  435.48
     71.2700	  717.00	  688.33	-1894.81	  435.44
     71.3700	  700.00	  710.87	-1934.35	  435.40
     71.4700	  755.00	  744.19	-1912.67	  435.35
     71.5700	  844.00	  792.09	-1871.57	  435.31
     71.6700	  928.00	  858.64	-1854.12	  435.27
     71.7700	  994.00	  947.47	-1876.95	  435.22
     71.8700	 1072.00	 1060.84	-1912.32	  435.17
     71.9700	 1179.00	 1198.50	-1942.98	  435.13
     72.0700	 1359.00	 1356.56	-1921.04	  435.08
     72.1700	 1451.00	 1526.62	-1999.10	  435.03
     72.2700	 1634.00	 1695.02	-1984.49	  434.98
     72.3700	 1834.00	 1842.52	-1932.00	  434.93
     72.4700	 1912.00	 1946.09	-1957.57	  434.88
     72.5700	 2016.00	 1984.99	-1892.46	  434.82
     72.6700	 1912.00	 1950.21	-1961.69	  434.77
     72.7700	 1876.00	 1850.48	-1897.96	  434.72
     72.8700	 1663.00	 1704.56	-1965.04	  434.66
     72.9700	 1544.00	 1536.29	-1915.77	  434.60
     73.0700	 1382.00	 1365.22	-1906.70	  434.55
     73.1700	 1147.00	 1205.40	-1981.88	  434.49
     73.2700	 1009.00	 1065.44	-1979.92	  434.43
     73.3700	  933.00	  949.40	-1939.88	  434.37
     73.4700	  859.00	  857.76	-1922.24	  434.31
     73.5700	  747.00	  788.41	-1964.89	  434.25
     73.6700	  725.00	  737.83	-1936.31	  434.18
     73.7700	  708.00	  702.02	-1917.50	  434.12
     73.8700	  712.00	  677.20	-1888.68	  434.06
     73.9700	  639.00	  660.22	-1944.70	  433.99
     74.0700	  680.00	  648.19	-1891.67	  433.93
     74.1700	  668.00	  640.48	-1895.96	  433.86
     74.2700	  662.00	  635.47	-1896.95	  433.79
     74.3700	  657.00	  632.48	-1898.96	  433.72
     74.4700	  625.00	  631.09	-1929.56	  433.65
     74.5700	  622.00	  630.98	-1932.46	  433.58
     74.6700	  617.00	  631.89	-1938.37	  433.51
     74.7700	  627.00	  633.53	-1930.01	  433.44
     74.8700	  611.00	  635.54	-1948.02	  433.37
     74.9700	  674.00	  637.49	-1886.97	  433.29
     75.0700	  682.00	  638.79	-1880.27	  433.22
     75.1700	  714.00	  639.13	-1848.61	  433.14
     75.2700	  706.00	  638.21	-1855.69	  433.06
     75.3700	  705.00	  636.15	-1854.63	  432.99
     75.4700	  711.00	  633.44	-1845.92	  432.91
     75.5700	  642.00	  630.73	-1912.21	  432.83
     75.6700	  637.00	  628.72	-1915.20	  432.75
     75.7700	  643.00	  628.14	-1908.62	  432.67
     75.8700	  623.00	  629.66	-1930.14	  432.58
     75.9700	  667.00	  634.22	-1890.70	  432.50
     76.0700	  690.00	  642.56	-1876.04	  432.42
     76.1700	  648.00	  655.47	-1930.95	  432.33
     76.2700	  659.00	  673.61	-1938.09	  432.25
     76.3700	  655.00	  697.38	-1965.86	  432.16
     76.4700	  702.00	  726.73	-1948.20	  432.07
     76.5700	  723.00	  760.99	-1961.47	  431.98
     76.6700	  801.00	  798.76	-1921.24	  431.89
     76.7700	  849.00	  837.72	-1912.20	  431.80
     76.8700	  855.00	  874.56	-1943.04	  431.71
     76.9700	  855.00	  905.07	-1973.55	  431.62
     77.0700	  907.00	  924.68	-1941.16	  431.53
     77.1700	  879.00	  929.77	-1974.25	  431.44
     77.2700	 1002.00	  919.23	-1840.71	  431.34
     77.3700	  859.00	  895.05	-1959.53	  431.25
     77.4700	  840.00	  861.29	-1944.76	  431.15
     77.5700	  836.00	  822.49	-1909.97	  431.05
     77.6700	  801.00	  782.60	-1905.08	  430.95
     77.7700	  714.00	  744.35	-1953.83	  430.86
     77.8700	  683.00	  710.13	-1950.61	  430.76
     77.9700	  650.00	  680.84	-1954.32	  430.65
     78.0700	  677.00	  656.84	-1903.32	  430.55
     78.1700	  651.00	  637.95	-1910.43	  430.45
     78.2700	  605.00	  623.59	-1942.07	  430.35
     78.3700	  618.00	  613.01	-1918.49	  430.24
     78.4700	  562.00	  605.42	-1966.90	  430.14
     78.5700	  670.00	  600.06	-1853.54	  430.03
     78.6700	  641.00	  596.33	-1878.81	  429.93
     78.7700	  626.00	  593.75	-1891.23	  429.82
     78.8700	  591.00	  591.92	-1924.40	  429.71
     78.9700	  574.00	  590.71	-1940.19	  429.60
     79.0700	  577.00	  589.93	-1936.41	  429.49
     79.1700	  557.00	  589.49	-1955.97	  429.38
     79.2700	  576.00	  589.34	-1936.82	  429.27
     79.3700	  614.00	  589.49	-1898.97	  429.16
     79.4700	  609.00	  589.94	-1904.42	  429.04
     79.5700	  610.00	  590.72	-1904.20	  428.93
     79.6700	  598.00	  591.91	-1917.38	  428.81
     79.7700	  606.00	  593.57	-1911.05	  428.70
     79.8700	  584.00	  595.85	-1935.33	  428.58
     79.9700	  655.00	  598.96	-1867.44	  428.46
     80.0700	  583.00	  603.20	-1943.68	  428.35
     80.1700	  617.00	  609.05	-1915.53	  428.23
     80.2700	  637.00	  617.15	-1903.63	  428.11
     80.3700	  692.00	  628.40	-1859.88	  427.99
     80.4700	  676.00	  643.90	-1891.38	  427.86
     80.5700	  699.00	  664.74	-1889.22	  427.74
     80.6700	  715.00	  692.72	-1901.20	  427.62
     80.7700	  753.00	  728.91	-1899.39	  427.49
     80.8700	  809.00	  774.28	-1888.76	  427.37
     80.9700	  892.00	  829.08	-1860.56	  427.24
     81.0700	  927.00	  892.60	-1889.08	  427.12
     81.1700	 1010.00	  962.77	-1876.25	  426.99
     81.2700	 1028.00	 1036.08	-1931.56	  426.86
     81.3700	 1101.00	 1107.58	-1930.06	  426.73
     81.4700	 1236.00	 1171.26	-1858.74	  426.60
     81.5700	 1194.00	 1221.15	-1950.63	  426.47
     81.6700	 1226.00	 1252.66	-1950.14	  426.34
     81.7700	 1249.00	 1263.65	-1938.13	  426.21
     81.8700	 1221.00	 1254.30	-1956.77	  426.08
     81.9700	 1242.00	 1226.67	-1908.15	  425.94
     82.0700	 1178.00	 1184.30	-1929.78	  425.81
     82.1700	 1111.00	 1131.67	-1944.15	  425.68
     82.2700	 1093.00	 1073.35	-1903.83	  425.54
     82.3700	 1008.00	 1013.28	-1928.76	  425.40
     82.4700	  959.00	  954.68	-1919.16	  425.27
     82.5700	  922.00	  899.96	-1901.44	  425.13
     82.6700	  874.00	  850.72	-1900.20	  424.99
     82.7700	  796.00	  807.61	-1935.09	  424.85
     82.8700	  674.00	  770.48	-2019.95	  424.71
     82.9700	  688.00	  738.69	-1974.17	  424.57
     83.0700	  680.00	  711.52	-1955.00	  424.43
     83.1700	  672.00	  688.37	-1939.85	  424.29
     83.2700	  654.00	  668.87	-1938.35	  424.14
     83.3700	  638.00	  652.77	-1938.25	  424.00
     83.4700	  607.00	  639.92	-1956.40	  423.86
     83.5700	  602.00	  630.19	-1951.67	  423.71
     83.6700	  584.00	  623.42	-1962.90	  423.57
     83.7700	  615.00	  619.46	-1927.94	  423.42
     83.8700	  601.00	  618.07	-1940.55	  423.27
     83.9700	  564.00	  618.94	-1978.42	  423.13
     84.0700	  613.00	  621.65	-1932.13	  422.98
     84.1700	  644.00	  625.67	-1905.15	  422.83
     84.2700	  643.00	  630.27	-1910.75	  422.68
     84.3700	  613.00	  634.95	-1945.43	  422.53
     84.4700	  666.00	  638.82	-1896.30	  422.38
     84.5700	  611.00	  641.05	-1953.53	  422.23
     84.6700	  645.00	  641.25	-1919.73	  422.07
     84.7700	  605.00	  639.10	-1957.58	  421.92
     84.8700	  605.00	  634.81	-1953.29	  421.77
     84.9700	  602.00	  628.88	-1950.36	  421.61
     85.0700	  622.00	  621.96	-1923.44	  421.46
     85.1700	  617.00	  614.69	-1921.17	  421.30
     85.2700	  619.00	  607.61	-1912.09	  421.15
     85.3700	  569.00	  601.17	-1955.64	  420.99
     85.4700	  565.00	  595.68	-1954.16	  420.83
     85.5700	  616.00	  591.37	-1898.85	  420.68
     85.6700	  592.00	  588.37	-1919.85	  420.52
     85.7700	  569.00	  586.75	-1941.23	  420.36
     85.8700	  586.00	  586.55	-1924.03	  420.20
     85.9700	  583.00	  587.78	-1928.26	  420.04
     86.0700	  583.00	  590.42	-1930.90	  419.88
     86.1700	  628.00	  594.44	-1889.92	  419.72
     86.2700	  584.00	  599.82	-1939.30	  419.56
     86.3700	  652.00	  606.44	-1877.92	  419.40
     86.4700	  588.00	  614.19	-1949.67	  419.23
     86.5700	  569.00	  622.87	-1977.35	  419.07
     86.6700	  594.00	  632.22	-1961.70	  418.91
     86.7700	  604.00	  641.89	-1961.37	  418.74
     86.8700	  618.00	  651.52	-1957.00	  418.58
     86.9700	  598.00	  660.70	-1986.18	  418.41
     87.0700	  672.00	  669.19	-1920.67	  418.25
     87.1700	  616.00	  676.94	-1984.42	  418.08
     87.2700	  678.00	  684.13	-1929.61	  417.91
     87.3700	  685.00	  691.10	-1929.58	  417.75
     87.4700	  696.00	  698.16	-1925.63	  417.58
     87.5700	  687.00	  705.44	-1941.92	  417.41
     87.6700	  693.00	  712.84	-1943.32	  417.24
     87.7700	  660.00	  719.99	-1983.47	  417.07
     87.8700	  709.00	  726.22	-1940.70	  416.90
     87.9700	  740.00	  730.67	-1914.15	  416.73
     88.0700	  720.00	  732.42	-1935.90	  416.56
     88.1700	  755.00	  730.75	-1899.22	  416.39
     88.2700	  725.00	  725.39	-1923.87	  416.22
     88.3700	  710.00	  716.65	-1930.13	  416.05
     88.4700	  741.00	  705.27	-1887.75	  415.88
     88.5700	  680.00	  692.21	-1935.69	  415.71
     88.6700	  683.00	  678.45	-1918.93	  415.53
     88.7700	  652.00	  664.86	-1936.34	  415.36
     88.8700	  643.00	  651.78	-1932.25	  415.19
     88.9700	  627.00	  640.63	-1937.11	  415.01
     89.0700	  623.00	  631.41	-1931.89	  414.84
     89.1700	  619.00	  624.35	-1928.83	  414.67
     89.2700	  661.00	  619.50	-1881.98	  414.49
     89.3700	  685.00	  616.76	-1855.24	  414.32
     89.4700	  595.00	  615.90	-1944.38	  414.14
     89.5700	  623.00	  616.55	-1917.03	  413.97
     89.6700	  601.00	  618.26	-1940.74	  413.79
     89.7700	  667.00	  620.51	-1876.98	  413.61
     89.8700	  681.00	  622.72	-1865.20	  413.44
     89.9700	  658.00	  624.34	-1889.82	  413.26
     90.0700	  658.00	  624.87	-1890.34	  413.08
     90.1700	  664.00	  623.98	-1883.46	  412.91
     90.2700	  649.00	  621.60	-1896.08	  412.73
     90.3700	  682.00	  617.89	-1859.37	  412.55
     90.4700	  638.00	  613.17	-1898.65	  412.37
     90.5700	  645.00	  607.81	-1886.29	  412.20
     90.6700	  641.00	  602.19	-1884.67	  412.02
     90.7700	  600.00	  596.64	-1920.12	  411.84
     90.8700	  628.00	  591.40	-1886.88	  411.66
     90.9700	  566.00	  586.67	-1944.15	  411.48
     91.0700	  594.00	  582.57	-1912.05	  411.30
     91.1700	  542.00	  579.16	-1960.64	  411.12
     91.2700	  594.00	  576.44	-1905.92	  410.94
     91.3700	  569.00	  574.39	-1928.87	  410.76
     91.4700	  590.00	  572.97	-1906.45	  410.58
     91.5700	  579.00	  572.11	-1916.59	  410.40
     91.6700	  525.00	  571.77	-1970.25	  410.22
     91.7700	  605.00	  571.93	-1890.41	  410.04
     91.8700	  564.00	  572.57	-1932.05	  409.86
     91.9700	  609.00	  573.74	-1888.21	  409.68
     92.0700	  572.00	  575.49	-1926.97	  409.50
     92.1700	  549.00	  577.95	-1952.43	  409.32
     92.2700	  650.00	  581.25	-1854.73	  409.14
     92.3700	  577.00	  585.59	-1932.07	  408.96
     92.4700	  546.00	  591.17	-1968.65	  408.78
     92.5700	  587.00	  598.21	-1934.69	  408.60
     92.6700	  580.00	  606.93	-1950.40	  408.42
     92.7700	  651.00	  617.49	-1889.97	  408.24
     92.8700	  633.00	  630.05	-1920.53	  408.06
     92.9700	  630.00	  644.64	-1938.12	  407.88
     93.0700	  628.00	  661.21	-1956.69	  407.70
     93.1700	  667.00	  679.60	-1936.08	  407.52
     93.2700	  650.00	  699.49	-1972.97	  407.33
     93.3700	  682.00	  720.43	-1961.91	  407.15
     93.4700	  712.00	  741.79	-1953.27	  406.97
     93.5700	  690.00	  762.84	-1996.32	  406.79
     93.6700	  738.00	  782.77	-1968.25	  406.61
     93.7700	  777.00	  800.88	-1947.36	  406.43
     93.8700	  785.00	  816.71	-1955.19	  406.25
     93.9700	  836.00	  830.25	-1917.73	  406.07
     94.0700	  859.00	  841.86	-1906.34	  405.89
     94.1700	  851.00	  852.21	-1924.69	  405.71
     94.2700	  798.00	  861.99	-1987.47	  405.53
     94.3700	  853.00	  871.77	-1942.25	  405.35
     94.4700	  878.00	  881.66	-1927.14	  405.17
     94.5700	  900.00	  892.54	-1916.02	  405.00
     94.6700	  910.00	  904.29	-1917.77	  404.82
     94.7700	  909.00	  917.14	-1931.62	  404.64
     94.8700	  921.00	  931.24	-1933.72	  404.46
     94.9700	  955.00	  946.58	-1915.06	  404.28
     95.0700	  944.00	  962.83	-1942.31	  404.10
     95.1700	  989.00	  979.21	-1913.68	  403.93
     95.2700	 1036.00	  994.46	-1881.94	  403.75
     95.3700	 1051.00	 1006.97	-1879.45	  403.57
     95.4700	 1093.00	 1014.93	-1845.41	  403.39
     95.5700	  965.00	 1016.65	-1975.13	  403.22
     95.6700	  969.00	 1010.96	-1965.44	  403.04
     95.7700	  992.00	  997.58	-1929.06	  402.87
     95.8700	  988.00	  977.17	-1912.65	  402.69
     95.9700	  967.00	  951.26	-1907.73	  402.51
     96.0700	  860.00	  921.82	-1985.30	  402.34
     96.1700	  850.00	  891.05	-1964.53	  402.17
     96.2700	  863.00	  861.10	-1921.58	  401.99
     96.3700	  830.00	  834.00	-1927.48	  401.82
     96.4700	  765.00	  811.55	-1970.03	  401.64
     96.5700	  812.00	  795.32	-1906.80	  401.47
     96.6700	  808.00	  786.59	-1902.07	  401.30
     96.7700	  786.00	  786.41	-1923.88	  401.13
     96.8700	  830.00	  795.57	-1889.05	  400.95
     96.9700	  788.00	  814.62	-1950.10	  400.78
     97.0700	  875.00	  843.91	-1892.39	  400.61
     97.1700	  876.00	  883.48	-1930.96	  400.44
     97.2700	  995.00	  933.08	-1861.56	  400.27
     97.3700	 1028.00	  992.12	-1887.59	  400.10
     97.4700	 1078.00	 1059.50	-1904.98	  399.94
     97.5700	 1151.00	 1133.68	-1906.16	  399.77
     97.6700	 1223.00	 1212.48	-1912.96	  399.60
     97.7700	 1343.00	 1293.08	-1873.56	  399.43
     97.8700	 1380.00	 1372.12	-1915.59	  399.27
     97.9700	 1377.00	 1445.55	-1992.03	  399.10
     98.0700	 1576.00	 1509.02	-1856.50	  398.94
     98.1700	 1572.00	 1558.09	-1909.57	  398.77
     98.2700	 1565.00	 1588.98	-1947.46	  398.61
     98.3700	 1507.00	 1599.25	-2015.73	  398.45
     98.4700	 1618.00	 1588.40	-1893.88	  398.28
     98.5700	 1462.00	 1557.93	-2019.41	  398.12
     98.6700	 1484.00	 1510.93	-1950.40	  397.96
     98.7700	 1407.00	 1451.40	-1967.88	  397.80
     98.8700	 1311.00	 1383.63	-1996.11	  397.64
     98.9700	 1323.00	 1311.78	-1912.26	  397.48
     99.0700	 1196.00	 1239.63	-1967.11	  397.32
     99.1700	 1118.00	 1170.52	-1976.00	  397.17
     99.2700	 1117.00	 1107.30	-1913.78	  397.01
     99.3700	 1066.00	 1052.30	-1909.77	  396.85
     99.4700	 1024.00	 1007.42	-1906.90	  396.70
     99.5700	  998.00	  974.18	-1899.66	  396.55
     99.6700	  916.00	  953.70	-1961.18	  396.39
     99.7700	  947.00	  946.80	-1923.28	  396.24
     99.8700	  948.00	  953.97	-1929.45	  396.09
     99.9700	  986.00	  975.41	-1912.88	  395.94
    100.0700	 1060.00	 1011.02	-1874.50	  395.79
    100.1700	 1112.00	 1060.40	-1871.88	  395.64
    100.2700	 1181.00	 1122.81	-1865.28	  395.49
    100.3700	 1176.00	 1197.12	-1944.60	  395.35
    100.4700	 1327.00	 1281.76	-1878.24	  395.20
    100.5700	 1415.00	 1374.70	-1883.18	  395.06
    100.6700	 1463.00	 1473.35	-1933.83	  394.91
    100.7700	 1515.00	 1574.59	-1983.06	  394.77
    100.8700	 1637.00	 1674.79	-1961.27	  394.63
    100.9700	 1722.00	 1770.24	-1971.72	  394.49
    101.0700	 1877.00	 1857.10	-1903.58	  394.35
    101.1700	 1955.00	 1932.05	-1900.53	  394.21
    101.2700	 1964.00	 1992.59	-1952.06	  394.07
    101.3700	 2064.00	 2037.13	-1896.61	  393.93
    101.4700	 2072.00	 2064.83	-1916.31	  393.80
    101.5700	 2107.00	 2075.26	-1891.74	  393.66
    101.6700	 2089.00	 2068.29	-1902.77	  393.53
    101.7700	 2130.00	 2044.15	-1837.63	  393.40
    101.8700	 2089.00	 2003.75	-1838.23	  393.27
    101.9700	 1996.00	 1949.03	-1876.51	  393.14
    102.0700	 1936.00	 1882.94	-1870.42	  393.01
    102.1700	 1731.00	 1809.23	-2001.71	  392.89
    102.2700	 1773.00	 1731.98	-1882.46	  392.76
    102.3700	 1709.00	 1654.98	-1869.46	  392.64
    102.4700	 1562.00	 1581.49	-1942.97	  392.51
    102.5700	 1568.00	 1513.91	-1869.39	  392.39
    102.6700	 1493.00	 1453.83	-1884.31	  392.27
    102.7700	 1426.00	 1402.05	-1899.53	  392.15
    102.8700	 1374.00	 1358.52	-1908.00	  392.03
    102.9700	 1321.00	 1322.61	-1925.09	  391.92
    103.0700	 1267.00	 1293.02	-1949.50	  391.80
    103.1700	 1261.00	 1268.02	-1930.50	  391.69
    103.2700	 1248.00	 1245.56	-1921.04	  391.58
    103.3700	 1245.00	 1223.47	-1901.95	  391.47
    103.4700	 1168.00	 1199.77	-1955.25	  391.36
    103.5700	 1164.00	 1172.96	-1932.44	  391.25
    103.6700	 1129.00	 1142.23	-1936.71	  391.14
    103.7700	 1098.00	 1107.47	-1932.95	  391.04
    103.8700	 1099.00	 1069.19	-1893.67	  390.93
    103.9700	 1084.00	 1028.31	-1867.79	  390.83
    104.0700	  961.00	  985.92	-1948.40	  390.73
    104.1700	  931.00	  943.11	-1935.59	  390.63
    104.2700	  916.00	  900.92	-1908.40	  390.54
    104.3700	  917.00	  860.24	-1866.72	  390.44
    104.4700	  853.00	  821.81	-1892.29	  390.35
    104.5700	  782.00	  786.21	-1927.69	  390.26
    104.6700	  795.00	  753.85	-1882.33	  390.17
    104.7700	  733.00	  724.94	-1915.42	  390.08
    104.8700	  732.00	  699.58	-1891.06	  389.99
    104.9700	  715.00	  677.67	-1886.14	  389.91
    105.0700	  698.00	  659.14	-1884.62	  389.82
    105.1700	  649.00	  643.70	-1918.18	  389.74
    105.2700	  737.00	  631.06	-1817.54	  389.66
    105.3700	  617.00	  620.90	-1927.38	  389.58
    105.4700	  667.00	  612.90	-1869.38	  389.51
    105.5700	  677.00	  606.77	-1853.25	  389.43
    105.6700	  598.00	  602.25	-1927.73	  389.36
    105.7700	  627.00	  599.05	-1895.53	  389.29
    105.8700	  613.00	  597.10	-1907.58	  389.22
    105.9700	  619.00	  596.22	-1900.70	  389.16
    106.0700	  630.00	  596.32	-1889.80	  389.09
    106.1700	  615.00	  597.37	-1905.85	  389.03
    106.2700	  590.00	  599.35	-1932.83	  388.97
    106.3700	  602.00	  602.29	-1923.77	  388.91
    106.4700	  646.00	  606.23	-1883.71	  388.85
    106.5700	  642.00	  611.25	-1892.73	  388.80
    106.6700	  608.00	  617.41	-1932.89	  388.74
    106.7700	  630.00	  624.78	-1918.26	  388.69
    106.8700	  667.00	  633.40	-1889.88	  388.65
    106.9700	  696.00	  643.28	-1870.75	  388.60
    107.0700	  649.00	  654.39	-1928.87	  388.56
    107.1700	  671.00	  666.64	-1919.12	  388.51
    107.2700	  653.00	  679.87	-1950.35	  388.47
    107.3700	  635.00	  693.89	-1982.37	  388.44
    107.4700	  698.00	  708.38	-1933.86	  388.40
    107.5700	  722.00	  723.02	-1924.50	  388.37
    107.6700	  755.00	  737.39	-1905.87	  388.34
    107.7700	  746.00	  751.05	-1928.53	  388.31
    107.8700	  744.00	  763.50	-1942.98	  388.28
    107.9700	  762.00	  774.28	-1935.76	  388.26
    108.0700	  729.00	  783.00	-1977.47	  388.24
    108.1700	  731.00	  789.36	-1981.84	  388.22
    108.2700	  800.00	  793.26	-1916.74	  388.20
    108.3700	  745.00	  794.86	-1973.34	  388.19
    108.4700	  799.00	  794.46	-1918.94	  388.17
    108.5700	  771.00	  792.49	-1944.97	  388.16
    108.6700	  759.00	  789.47	-1953.95	  388.16
    108.7700	  713.00	  785.93	-1996.41	  388.15
    108.8700	  741.00	  782.32	-1964.80	  388.15
    108.9700	  664.00	  779.04	-2038.52	  388.15
    109.0700	  768.00	  776.34	-1931.82	  388.15
    109.1700	  672.00	  774.39	-2025.87	  388.16
    109.2700	  726.00	  773.23	-1970.71	  388.17
    109.3700	  737.00	  772.78	-1959.26	  388.18
    109.4700	  737.00	  772.84	-1959.31	  388.19
    109.5700	  715.00	  773.10	-1981.58	  388.21
    109.6700	  777.00	  773.20	-1919.68	  388.23
    109.7700	  788.00	  772.70	-1908.18	  388.25
    109.8700	  716.00	  771.20	-1978.68	  388.27
    109.9700	  749.00	  768.33	-1942.81	  388.30
    110.0700	  774.00	  763.86	-1913.34	  388.33
    110.1700	  714.00	  757.70	-1967.17	  388.36
    110.2700	  692.00	  749.92	-1981.40	  388.40
    110.3700	  712.00	  740.72	-1952.20	  388.44
    110.4700	  705.00	  730.38	-1948.86	  388.48
    110.5700	  783.00	  719.22	-1859.70	  388.52
    110.6700	  736.00	  707.59	-1895.06	  388.57
    110.7700	  669.00	  695.79	-1950.27	  388.62
    110.8700	  662.00	  684.13	-1945.61	  388.67
    110.9700	  684.00	  672.85	-1912.33	  388.73
    111.0700	  642.00	  662.17	-1943.65	  388.79
    111.1700	  599.00	  652.27	-1976.75	  388.85
    111.2700	  663.00	  643.26	-1903.74	  388.92
    111.3700	  614.00	  635.24	-1944.72	  388.98
    111.4700	  614.00	  628.27	-1937.75	  389.06
    111.5700	  590.00	  622.35	-1955.83	  389.13
    111.6700	  590.00	  617.48	-1950.96	  389.21
    111.7700	  606.00	  613.61	-1931.09	  389.29
    111.8700	  600.00	  610.68	-1934.16	  389.37
    111.9700	  599.00	  608.62	-1933.10	  389.46
    112.0700	  620.00	  607.33	-1910.81	  389.55
    112.1700	  632.00	  606.73	-1898.21	  389.64
    112.2700	  592.00	  606.71	-1938.19	  389.74
    112.3700	  604.00	  607.19	-1926.67	  389.84
    112.4700	  629.00	  608.07	-1902.55	  389.95
    112.5700	  573.00	  609.26	-1959.74	  390.05
    112.6700	  616.00	  610.70	-1918.18	  390.16
    112.7700	  593.00	  612.33	-1942.80	  390.28
    112.8700	  561.00	  614.08	-1976.56	  390.39
    112.9700	  632.00	  615.94	-1907.41	  390.52
    113.0700	  600.00	  617.88	-1941.36	  390.64
    113.1700	  637.00	  619.91	-1906.39	  390.77
    113.2700	  605.00	  622.06	-1940.54	  390.90
    113.3700	  651.00	  624.35	-1896.83	  391.03
    113.4700	  558.00	  626.84	-1992.32	  391.17
    113.5700	  607.00	  629.57	-1946.05	  391.32
    113.6700	  618.00	  632.63	-1938.11	  391.46
    113.7700	  603.00	  636.10	-1956.58	  391.61
    113.8700	  617.00	  640.06	-1946.54	  391.76
    113.9700	  618.00	  644.68	-1950.16	  391.92
    114.0700	  637.00	  650.11	-1936.59	  392.08
    114.1700	  658.00	  656.55	-1922.03	  392.25
    114.2700	  663.00	  664.28	-1924.76	  392.41
    114.3700	  652.00	  673.65	-1945.13	  392.59
    114.4700	  677.00	  685.10	-1931.58	  392.76
    114.5700	  694.00	  699.20	-1928.68	  392.94
    114.6700	  663.00	  716.67	-1977.15	  393.13
    114.7700	  758.00	  738.38	-1903.86	  393.31
    114.8700	  751.00	  765.42	-1937.90	  393.51
    114.9700	  807.00	  799.09	-1915.57	  393.70
    115.0700	  835.00	  840.94	-1929.42	  393.90
    115.1700	  946.00	  892.79	-1870.27	  394.11
    115.2700	 1029.00	  956.69	-1851.17	  394.31
    115.3700	 1072.00	 1034.94	-1886.42	  394.53
    115.4700	 1188.00	 1130.01	-1865.49	  394.74
    115.5700	 1401.00	 1244.57	-1767.05	  394.96
    115.6700	 1513.00	 1381.33	-1791.81	  395.19
    115.7700	 1698.00	 1542.94	-1768.42	  395.42
    115.8700	 1883.00	 1731.86	-1772.34	  395.65
    115.9700	 2124.00	 1950.19	-1749.67	  395.89
    116.0700	 2444.00	 2199.54	-1679.01	  396.13
    116.1700	 2639.00	 2480.85	-1765.33	  396.37
    116.2700	 2985.00	 2794.09	-1732.57	  396.62
    116.3700	 3241.00	 3138.21	-1820.69	  396.88
    116.4700	 3694.00	 3510.87	-1740.34	  397.14
    116.5700	 3969.00	 3908.53	-1863.00	  397.40
    116.6700	 4368.00	 4326.27	-1881.75	  397.67
    116.7700	 4800.00	 4757.64	-1881.12	  397.94
    116.8700	 5054.00	 5194.86	-2064.34	  398.22
    116.9700	 5518.00	 5628.88	-2034.35	  398.50
    117.0700	 5859.00	 6049.56	-2114.04	  398.78
    117.1700	 6380.00	 6445.90	-1989.38	  399.07
    117.2700	 6575.00	 6806.22	-2154.70	  399.37
    117.3700	 6989.00	 7118.79	-2053.27	  399.67
    117.4700	 7233.00	 7372.42	-2062.90	  399.97
    117.5700	 7399.00	 7557.34	-2081.82	  400.28
    117.6700	 7481.00	 7666.01	-2108.49	  400.60
    117.7700	 7441.00	 7693.92	-2176.40	  400.91
    117.8700	 7444.00	 7640.20	-2119.68	  401.24
    117.9700	 7271.00	 7507.75	-2160.23	  401.57
    118.0700	 6994.00	 7302.77	-2232.25	  401.90
    118.1700	 6886.00	 7034.03	-2071.51	  402.24
    118.2700	 6476.00	 6712.12	-2159.60	  402.58
    118.3700	 6286.00	 6348.47	-1985.95	  402.93
    118.4700	 5830.00	 5954.71	-2048.19	  403.28
    118.5700	 5329.00	 5541.95	-2136.43	  403.64
    118.6700	 5228.00	 5120.54	-1816.02	  404.00
    118.7700	 4831.00	 4699.87	-1792.35	  404.37
    118.8700	 4437.00	 4288.06	-1774.54	  404.74
    118.9700	 4032.00	 3891.94	-1783.42	  405.12
    119.0700	 3816.00	 3516.83	-1624.31	  405.50
    119.1700	 3492.00	 3166.68	-1598.16	  405.89
    119.2700	 3011.00	 2844.23	-1756.71	  406.28
    119.3700	 2751.00	 2551.00	-1723.48	  406.68
    119.4700	 2464.00	 2287.45	-1746.93	  407.09
    119.5700	 2304.00	 2053.13	-1672.61	  407.50
    119.6700	 2030.00	 1846.86	-1740.34	  407.91
    119.7700	 1759.00	 1667.00	-1831.48	  408.33
    119.8700	 1706.00	 1511.52	-1729.00	  408.76
    119.9700	 1523.00	 1378.14	-1778.62	  409.19
    120.0700	 1419.00	 1264.46	-1768.94	  409.62
    120.1700	 1274.00	 1168.10	-1817.57	  410.07
    120.2700	 1195.00	 1086.77	-1815.25	  410.51
    120.3700	 1173.00	 1018.35	-1768.83	  410.97
    120.4700	 1012.00	  960.91	-1872.39	  411.42
    120.5700	 1029.00	  912.70	-1807.18	  411.89
    120.6700	  958.00	  872.23	-1837.71	  412.36
    120.7700	  867.00	  838.23	-1894.71	  412.83
    120.8700	  825.00	  809.62	-1908.10	  413.31
    120.9700	  848.00	  785.51	-1860.99	  413.80
    121.0700	  819.00	  765.17	-1869.65	  414.29
    121.1700	  799.00	  748.02	-1872.50	  414.79
    121.2700	  760.00	  733.56	-1897.04	  415.30
    121.3700	  720.00	  721.43	-1924.91	  415.81
    121.4700	  691.00	  711.32	-1943.80	  416.32
    121.5700	  670.00	  702.98	-1956.46	  416.84
    121.6700	  709.00	  696.22	-1910.70	  417.37
    121.7700	  663.00	  690.89	-1951.37	  417.91
    121.8700	  663.00	  686.85	-1947.33	  418.45
    121.9700	  660.00	  684.00	-1947.48	  418.99
    122.0700	  651.00	  682.27	-1954.74	  419.54
    122.1700	  674.00	  681.56	-1931.04	  420.10
    122.2700	  646.00	  681.82	-1959.30	  420.67
    122.3700	  658.00	  682.99	-1948.47	  421.24
    122.4700	  684.00	  685.00	-1924.48	  421.81
    122.5700	  665.00	  687.81	-1946.29	  422.40
    122.6700	  710.00	  691.36	-1904.84	  422.99
    122.7700	  667.00	  695.57	-1952.05	  423.58
    122.8700	  665.00	  700.39	-1958.87	  424.18
    122.9700	  656.00	  705.73	-1973.21	  424.79
    123.0700	  652.00	  711.52	-1983.00	  425.41
    123.1700	  741.00	  717.66	-1900.13	  426.03
    123.2700	  667.00	  724.05	-1980.53	  426.66
    123.3700	  671.00	  730.60	-1983.08	  427.29
    123.4700	  792.00	  737.19	-1868.67	  427.93
    123.5700	  744.00	  743.71	-1923.19	  428.58
    123.6700	  711.00	  750.04	-1962.52	  429.23
    123.7700	  727.00	  756.08	-1952.56	  429.89
    123.8700	  702.00	  761.71	-1983.19	  430.56
    123.9700	  755.00	  766.86	-1935.34	  431.23
    124.0700	  792.00	  771.45	-1902.93	  431.92
    124.1700	  764.00	  775.45	-1934.93	  432.60
    124.2700	  776.00	  778.85	-1926.33	  433.30
    124.3700	  751.00	  781.66	-1954.14	  434.00
    124.4700	  728.00	  783.89	-1979.37	  434.71
    124.5700	  735.00	  785.64	-1974.12	  435.42
    124.6700	  761.00	  786.95	-1949.43	  436.14
    124.7700	  769.00	  787.88	-1942.36	  436.87
    124.8700	  742.00	  788.49	-1969.97	  437.61
    124.9700	  750.00	  567.74	-1741.22	  438.35
    125.0700	  706.00	  568.49	-1923.48	  439.10
    125.1700	  731.00	  569.24	-1923.48	  439.86
    125.2700	  752.00	  570.01	-1923.48	  440.63
    125.3700	  780.00	  570.78	-1923.48	  441.40
    125.4700	  735.00	  571.56	-1923.48	  442.18
    125.5700	  739.00	  572.35	-1923.48	  442.96
    125.6700	  744.00	  573.14	-1923.48	  443.76
    125.7700	  755.00	  573.94	-1923.48	  444.56
    125.8700	  646.00	  574.75	-1923.48	  445.37
    125.9700	  732.00	  575.57	-1923.48	  446.18
    126.0700	  685.00	  576.39	-1923.48	  447.01
    126.1700	  697.00	  577.22	-1923.48	  447.84
    126.2700	  652.00	  578.06	-1923.48	  448.68
    126.3700	  667.00	  578.90	-1923.48	  449.52
    126.4700	  709.00	  579.76	-1923.48	  450.38
    126.5700	  688.00	  580.62	-1923.48	  451.24
    126.6700	  730.00	  581.49	-1923.48	  452.11
    126.7700	  753.00	  582.37	-1923.48	  452.98
    126.8700	  673.00	  583.25	-1923.48	  453.87
    126.9700	  684.00	  584.14	-1923.48	  454.76
    127.0700	  628.00	  585.04	-1923.48	  455.66
    127.1700	  657.00	  585.95	-1923.48	  456.57
    127.2700	  606.00	  586.87	-1923.48	  457.48
    127.3700	  638.00	  587.79	-1923.48	  458.41
    127.4700	  609.00	  588.72	-1923.48	  459.34
    127.5700	  640.00	  589.66	-1923.48	  460.28
    127.6700	  639.00	  590.61	-1923.48	  461.23
    127.7700	  616.00	  591.57	-1923.48	  462.18
    127.8700	  649.00	  592.53	-1923.48	  463.15
    127.9700	  629.00	  593.50	-1923.48	  464.12
    128.0700	  638.00	  594.48	-1923.48	  465.10
    128.1700	  648.00	  595.47	-1923.48	  466.09
    128.2700	  636.00	  596.47	-1923.48	  467.09
    128.3700	  691.00	  597.48	-1923.48	  468.09
    128.4700	  650.00	  598.49	-1923.48	  469.11
    128.5700	    0.00	  599.51	-1923.48	  470.13
    128.6700	    0.00	  600.54	-1923.48	  471.16
     12.4122	        	        	        	        	       0	(  0  0  2)	  0  1
     12.4122	        	        	        	        	    -480	(  0  0  2)	  0  1
     25.0733	        	        	        	        	       0	(  0  0  4)	  0  1
     25.0733	        	        	        	        	    -480	(  0  0  4)	  0  1
     28.5261	        	        	        	        	       0	(  1  0  0)	  0  1
     28.5261	        	        	        	        	    -480	(  1  0  0)	  0  1
     29.2280	        	        	        	        	       0	(  1  0  1)	  0  1
     29.2280	        	        	        	        	    -480	(  1  0  1)	  0  1
     31.2478	        	        	        	        	       0	(  1  0  2)	  0  1
     31.2478	        	        	        	        	    -480	(  1  0  2)	  0  1
     34.3773	        	        	        	        	       0	(  1  0  3)	  0  1
     34.3773	        	        	        	        	    -480	(  1  0  3)	  0  1
     38.0564	        	        	        	        	       0	(  0  0  6)	  0  1
     38.0564	        	        	        	        	    -480	(  0  0  6)	  0  1
     38.3817	        	        	        	        	       0	(  1  0  4)	  0  1
     38.3817	        	        	        	        	    -480	(  1  0  4)	  0  1
     43.0644	        	        	        	        	       0	(  1  0  5)	  0  1
     43.0644	        	        	        	        	    -480	(  1  0  5)	  0  1
     48.2857	        	        	        	        	       0	(  1  0  6)	  0  1
     48.2857	        	        	        	        	    -480	(  1  0  6)	  0  1
     50.6035	        	        	        	        	       0	(  1  1  0)	  0  1
     50.6035	        	        	        	        	    -480	(  1  1  0)	  0  1
     51.5725	        	        	        	        	       0	(  0  0  8)	  0  1
     51.5725	        	        	        	        	    -480	(  0  0  8)	  0  1
     52.3397	        	        	        	        	       0	(  1  1  2)	  0  1
     52.3397	        	        	        	        	    -480	(  1  1  2)	  0  1
     53.9582	        	        	        	        	       0	(  1  0  7)	  0  1
     53.9582	        	        	        	        	    -480	(  1  0  7)	  0  1
     57.3265	        	        	        	        	       0	(  1  1  4)	  0  1
     57.3265	        	        	        	        	    -480	(  1  1  4)	  0  1
     59.1614	        	        	        	        	       0	(  2  0  0)	  0  1
     59.1614	        	        	        	        	    -480	(  2  0  0)	  0  1
     59.5562	        	        	        	        	       0	(  2  0  1)	  0  1
     59.5562	        	        	        	        	    -480	(  2  0  1)	  0  1
     60.0359	        	        	        	        	       0	(  1  0  8)	  0  1
     60.0359	        	        	        	        	    -480	(  1  0  8)	  0  1
     60.7312	        	        	        	        	       0	(  2  0  2)	  0  1
     60.7312	        	        	        	        	    -480	(  2  0  2)	  0  1
     62.6605	        	        	        	        	       0	(  2  0  3)	  0  1
     62.6605	        	        	        	        	    -480	(  2  0  3)	  0  1
     65.0850	        	        	        	        	       0	(  1  1  6)	  0  1
     65.0850	        	        	        	        	    -480	(  1  1  6)	  0  1
     65.3070	        	        	        	        	       0	(  2  0  4)	  0  1
     65.3070	        	        	        	        	    -480	(  2  0  4)	  0  1
     65.9141	        	        	        	        	       0	(  0  0 10)	  0  1
     65.9141	        	        	        	        	    -480	(  0  0 10)	  0  1
     66.5056	        	        	        	        	       0	(  1  0  9)	  0  1
     66.5056	        	        	        	        	    -480	(  1  0  9)	  0  1
     68.6302	        	        	        	        	       0	(  2  0  5)	  0  1
     68.6302	        	        	        	        	    -480	(  2  0  5)	  0  1
     72.5937	        	        	        	        	       0	(  2  0  6)	  0  1
     72.5937	        	        	        	        	    -480	(  2  0  6)	  0  1
     73.3828	        	        	        	        	       0	(  1  0 10)	  0  1
     73.3828	        	        	        	        	    -480	(  1  0 10)	  0  1
     75.2138	        	        	        	        	       0	(  1  1  8)	  0  1
     75.2138	        	        	        	        	    -480	(  1  1  8)	  0  1
     77.1714	        	        	        	        	       0	(  2  0  7)	  0  1
     77.1714	        	        	        	        	    -480	(  2  0  7)	  0  1
     80.7117	        	        	        	        	       0	(  1  0 11)	  0  1
     80.7117	        	        	        	        	    -480	(  1  0 11)	  0  1
     81.5397	        	        	        	        	       0	(  0  0 12)	  0  1
     81.5397	        	        	        	        	    -480	(  0  0 12)	  0  1
     81.5920	        	        	        	        	       0	(  2  1  0)	  0  1
     81.5920	        	        	        	        	    -480	(  2  1  0)	  0  1
     81.9355	        	        	        	        	       0	(  2  1  1)	  0  1
     81.9355	        	        	        	        	    -480	(  2  1  1)	  0  1
     82.3543	        	        	        	        	       0	(  2  0  8)	  0  1
     82.3543	        	        	        	        	    -480	(  2  0  8)	  0  1
     82.9642	        	        	        	        	       0	(  2  1  2)	  0  1
     82.9642	        	        	        	        	    -480	(  2  1  2)	  0  1
     84.6740	        	        	        	        	       0	(  2  1  3)	  0  1
     84.6740	        	        	        	        	    -480	(  2  1  3)	  0  1
     87.0601	        	        	        	        	       0	(  2  1  4)	  0  1
     87.0601	        	        	        	        	    -480	(  2  1  4)	  0  1
     87.6140	        	        	        	        	       0	(  1  1 10)	  0  1
     87.6140	        	        	        	        	    -480	(  1  1 10)	  0  1
     88.1561	        	        	        	        	       0	(  2  0  9)	  0  1
     88.1561	        	        	        	        	    -480	(  2  0  9)	  0  1
     88.5712	        	        	        	        	       0	(  1  0 12)	  0  1
     88.5712	        	        	        	        	    -480	(  1  0 12)	  0  1
     90.1214	        	        	        	        	       0	(  2  1  5)	  0  1
     90.1214	        	        	        	        	    -480	(  2  1  5)	  0  1
     93.8647	        	        	        	        	       0	(  2  1  6)	  0  1
     93.8647	        	        	        	        	    -480	(  2  1  6)	  0  1
     94.6219	        	        	        	        	       0	(  2  0 10)	  0  1
     94.6219	        	        	        	        	    -480	(  2  0 10)	  0  1
     95.6345	        	        	        	        	       0	(  3  0  0)	  0  1
     95.6345	        	        	        	        	    -480	(  3  0  0)	  0  1
     95.9763	        	        	        	        	       0	(  3  0  1)	  0  1
     95.9763	        	        	        	        	    -480	(  3  0  1)	  0  1
     97.0032	        	        	        	        	       0	(  3  0  2)	  0  1
     97.0032	        	        	        	        	    -480	(  3  0  2)	  0  1
     97.0905	        	        	        	        	       0	(  1  0 13)	  0  1
     97.0905	        	        	        	        	    -480	(  1  0 13)	  0  1
     98.3119	        	        	        	        	       0	(  2  1  7)	  0  1
     98.3119	        	        	        	        	    -480	(  2  1  7)	  0  1
     98.7198	        	        	        	        	       0	(  3  0  3)	  0  1
     98.7198	        	        	        	        	    -480	(  3  0  3)	  0  1
     99.2920	        	        	        	        	       0	(  0  0 14)	  0  1
     99.2920	        	        	        	        	    -480	(  0  0 14)	  0  1
    101.1370	        	        	        	        	       0	(  3  0  4)	  0  1
    101.1370	        	        	        	        	    -480	(  3  0  4)	  0  1
    101.8431	        	        	        	        	       0	(  2  0 11)	  0  1
    101.8431	        	        	        	        	    -480	(  2  0 11)	  0  1
    102.6808	        	        	        	        	       0	(  1  1 12)	  0  1
    102.6808	        	        	        	        	    -480	(  1  1 12)	  0  1
    103.5094	        	        	        	        	       0	(  2  1  8)	  0  1
    103.5094	        	        	        	        	    -480	(  2  1  8)	  0  1
    104.2755	        	        	        	        	       0	(  3  0  5)	  0  1
    104.2755	        	        	        	        	    -480	(  3  0  5)	  0  1
    106.4824	        	        	        	        	       0	(  1  0 14)	  0  1
    106.4824	        	        	        	        	    -480	(  1  0 14)	  0  1
    108.1735	        	        	        	        	       0	(  3  0  6)	  0  1
    108.1735	        	        	        	        	    -480	(  3  0  6)	  0  1
    109.5445	        	        	        	        	       0	(  2  1  9)	  0  1
    109.5445	        	        	        	        	    -480	(  2  1  9)	  0  1
    109.9858	        	        	        	        	       0	(  2  0 12)	  0  1
    109.9858	        	        	        	        	    -480	(  2  0 12)	  0  1
    112.8979	        	        	        	        	       0	(  3  0  7)	  0  1
    112.8979	        	        	        	        	    -480	(  3  0  7)	  0  1
    116.5753	        	        	        	        	       0	(  2  1 10)	  0  1
    116.5753	        	        	        	        	    -480	(  2  1 10)	  0  1
    117.1249	        	        	        	        	       0	(  1  0 15)	  0  1
    117.1249	        	        	        	        	    -480	(  1  0 15)	  0  1
    117.7095	        	        	        	        	       0	(  2  2  0)	  0  1
    117.7095	        	        	        	        	    -480	(  2  2  0)	  0  1
    118.5665	        	        	        	        	       0	(  3  0  8)	  0  1
    118.5665	        	        	        	        	    -480	(  3  0  8)	  0  1
    119.2583	        	        	        	        	       0	(  2  2  2)	  0  1
    119.2583	        	        	        	        	    -480	(  2  2  2)	  0  1
    119.3577	        	        	        	        	       0	(  2  0 13)	  0  1
    119.3577	        	        	        	        	    -480	(  2  0 13)	  0  1
    121.1813	        	        	        	        	       0	(  0  0 16)	  0  1
    121.1813	        	        	        	        	    -480	(  0  0 16)	  0  1
    121.8920	        	        	        	        	       0	(  1  1 14)	  0  1
    121.8920	        	        	        	        	    -480	(  1  1 14)	  0  1
    124.0581	        	        	        	        	       0	(  2  2  4)	  0  1
    124.0581	        	        	        	        	    -480	(  2  2  4)	  0  1
    124.8982	        	        	        	        	       0	(  2  1 11)	  0  1
    124.8982	        	        	        	        	    -480	(  2  1 11)	  0  1
    125.3920	        	        	        	        	       0	(  3  0  9)	  0  1
    125.3920	        	        	        	        	    -480	(  3  0  9)	  0  1
    125.9673	        	        	        	        	       0	(  3  1  0)	  0  1
    125.9673	        	        	        	        	    -480	(  3  1  0)	  0  1
    126.3890	        	        	        	        	       0	(  3  1  1)	  0  1
    126.3890	        	        	        	        	    -480	(  3  1  1)	  0  1
    127.6684	        	        	        	        	       0	(  3  1  2)	  0  1
    127.6684	        	        	        	        	    -480	(  3  1  2)	  0  1
    129.7995	        	        	        	        	       0	(  1  0 16)	  0  1
    129.7995	        	        	        	        	    -480	(  1  0 16)	  0  1
    129.8517	        	        	        	        	       0	(  3  1  3)	  0  1
    129.8517	        	        	        	        	    -480	(  3  1  3)	  0  1
    130.5927	        	        	        	        	       0	(  2  0 14)	  0  1
    130.5927	        	        	        	        	    -480	(  2  0 14)	  0  1
    132.7561	        	        	        	        	       0	(  2  2  6)	  0  1
    132.7561	        	        	        	        	    -480	(  2  2  6)	  0  1
    133.0318	        	        	        	        	       0	(  3  1  4)	  0  1
    133.0318	        	        	        	        	    -480	(  3  1  4)	  0  1
    133.7948	        	        	        	        	       0	(  3  0 10)	  0  1
    133.7948	        	        	        	        	    -480	(  3  0 10)	  0  1
    135.1376	        	        	        	        	       0	(  2  1 12)	  0  1
    135.1376	        	        	        	        	    -480	(  2  1 12)	  0  1
    137.3837	        	        	        	        	       0	(  3  1  5)	  0  1
    137.3837	        	        	        	        	    -480	(  3  1  5)	  0  1
    143.2559	        	        	        	        	       0	(  3  1  6)	  0  1
    143.2559	        	        	        	        	    -480	(  3  1  6)	  0  1
    144.7800	        	        	        	        	       0	(  3  0 11)	  0  1
    144.7800	        	        	        	        	    -480	(  3  0 11)	  0  1
    145.3959	        	        	        	        	       0	(  2  0 15)	  0  1
    145.3959	        	        	        	        	    -480	(  2  0 15)	  0  1
    146.7521	        	        	        	        	       0	(  1  0 17)	  0  1
    146.7521	        	        	        	        	    -480	(  1  0 17)	  0  1
    147.7125	        	        	        	        	       0	(  2  2  8)	  0  1
    147.7125	        	        	        	        	    -480	(  2  2  8)	  0  1
    149.0352	        	        	        	        	       0	(  2  1 13)	  0  1
    149.0352	        	        	        	        	    -480	(  2  1 13)	  0  1
    151.4818	        	        	        	        	       0	(  3  1  7)	  0  1
    151.4818	        	        	        	        	    -480	(  3  1  7)	  0  1
    152.2548	        	        	        	        	       0	(  1  1 16)	  0  1
    152.2548	        	        	        	        	    -480	(  1  1 16)	  0  1
    157.2312	        	        	        	        	       0	(  0  0 18)	  0  1
    157.2312	        	        	        	        	    -480	(  0  0 18)	  0  1
    162.5349	        	        	        	        	       0	(  3  0 12)	  0  1
    162.5349	        	        	        	        	    -480	(  3  0 12)	  0  1
    162.7090	        	        	        	        	       0	(  4  0  0)	  0  1
    162.7090	        	        	        	        	    -480	(  4  0  0)	  0  1
    163.8992	        	        	        	        	       0	(  4  0  1)	  0  1
    163.8992	        	        	        	        	    -480	(  4  0  1)	  0  1
    165.4807	        	        	        	        	       0	(  3  1  8)	  0  1
    165.4807	        	        	        	        	    -480	(  3  1  8)	  0  1
    168.1531	        	        	        	        	       0	(  4  0  2)	  0  1
    168.1531	        	        	        	        	    -480	(  4  0  2)	  0  1
