MSG Master    CELL:    5.88306   5.88306  23.11977   90.0000   90.0000  120.0000   SPGR: P 63/m m c             TEMP:    565.75
  2   1280     2.52000     0.00000    -0.09060     0.00000     0.00000    0
    96    96     0     0     2
       0.00000      10.00000
     125.00000     130.00000
 2Theta	Yobs	Ycal	Yobs-Ycal	Backg	Posr	(hkl)	K
      0.7700	    0.00	  928.24	-1944.39	  795.03
      0.8700	    0.00	  925.31	-1944.39	  792.09
      0.9700	   48.00	  922.39	-1944.39	  789.18
      1.0700	   47.00	  919.49	-1944.39	  786.28
      1.1700	   45.00	  916.61	-1944.39	  783.40
      1.2700	   43.00	  913.74	-1944.39	  780.53
      1.3700	   53.00	  910.90	-1944.39	  777.68
      1.4700	  108.00	  908.07	-1944.39	  774.85
      1.5700	  310.00	  905.25	-1944.39	  772.04
      1.6700	  488.00	  902.46	-1944.39	  769.25
      1.7700	  576.00	  899.68	-1944.39	  766.47
      1.8700	  626.00	  896.92	-1944.39	  763.71
      1.9700	  745.00	  894.17	-1944.39	  760.96
      2.0700	  766.00	  891.45	-1944.39	  758.23
      2.1700	  782.00	  888.74	-1944.39	  755.52
      2.2700	  781.00	  886.04	-1944.39	  752.83
      2.3700	  730.00	  883.36	-1944.39	  750.15
      2.4700	  719.00	  880.70	-1944.39	  747.49
      2.5700	  694.00	  878.06	-1944.39	  744.85
      2.6700	  677.00	  875.43	-1944.39	  742.22
      2.7700	  700.00	  872.82	-1944.39	  739.61
      2.8700	  635.00	  870.23	-1944.39	  737.01
      2.9700	  626.00	  867.65	-1944.39	  734.44
      3.0700	  654.00	  865.08	-1944.39	  731.87
      3.1700	  619.00	  862.54	-1944.39	  729.33
      3.2700	  753.00	  860.01	-1944.39	  726.80
      3.3700	  925.00	  857.49	-1944.39	  724.28
      3.4700	 1078.00	  855.00	-1944.39	  721.78
      3.5700	 1185.00	  852.51	-1944.39	  719.30
      3.6700	 1335.00	  850.05	-1944.39	  716.83
      3.7700	 1412.00	  847.60	-1944.39	  714.38
      3.8700	 1444.00	  845.16	-1944.39	  711.95
      3.9700	 1610.00	  842.74	-1944.39	  709.53
      4.0700	 1590.00	  840.34	-1944.39	  707.13
      4.1700	 1640.00	  837.95	-1944.39	  704.74
      4.2700	 1719.00	  835.58	-1944.39	  702.36
      4.3700	 1701.00	  833.22	-1944.39	  700.01
      4.4700	 1613.00	  830.87	-1944.39	  697.66
      4.5700	 1552.00	  828.55	-1944.39	  695.34
      4.6700	 1518.00	  826.23	-1944.39	  693.02
      4.7700	 1502.00	  823.94	-1944.39	  690.73
      4.8700	 1485.00	  821.66	-1944.39	  688.44
      4.9700	 1344.00	  819.39	-1944.39	  686.18
      5.0700	 1352.00	  817.14	-1944.39	  683.92
      5.1700	 1314.00	  814.90	-1944.39	  681.69
      5.2700	 1231.00	  812.68	-1944.39	  679.46
      5.3700	 1257.00	  810.47	-1944.39	  677.25
      5.4700	 1172.00	  808.27	-1944.39	  675.06
      5.5700	 1172.00	  806.09	-1944.39	  672.88
      5.6700	 1196.00	  803.93	-1944.39	  670.72
      5.7700	 1132.00	  801.78	-1944.39	  668.57
      5.8700	 1083.00	  799.64	-1944.39	  666.43
      5.9700	 1081.00	  797.52	-1944.39	  664.31
      6.0700	 1069.00	  795.41	-1944.39	  662.20
      6.1700	 1011.00	  793.32	-1944.39	  660.11
      6.2700	 1021.00	  791.24	-1944.39	  658.03
      6.3700	 1045.00	  789.18	-1944.39	  655.97
      6.4700	  993.00	  787.13	-1944.39	  653.91
      6.5700	  954.00	  785.09	-1944.39	  651.88
      6.6700	  959.00	  783.07	-1944.39	  649.85
      6.7700	  928.00	  781.06	-1944.39	  647.85
      6.8700	  895.00	  779.06	-1944.39	  645.85
      6.9700	  971.00	  777.08	-1944.39	  643.87
      7.0700	  896.00	  775.11	-1944.39	  641.90
      7.1700	  904.00	  773.16	-1944.39	  639.94
      7.2700	  869.00	  771.21	-1944.39	  638.00
      7.3700	  858.00	  769.29	-1944.39	  636.07
      7.4700	  841.00	  767.37	-1944.39	  634.16
      7.5700	  834.00	  765.47	-1944.39	  632.26
      7.6700	  814.00	  763.58	-1944.39	  630.37
      7.7700	  811.00	  761.71	-1944.39	  628.50
      7.8700	  815.00	  759.85	-1944.39	  626.63
      7.9700	  817.00	  758.00	-1944.39	  624.79
      8.0700	  818.00	  756.16	-1944.39	  622.95
      8.1700	  763.00	  754.34	-1944.39	  621.13
      8.2700	  759.00	  752.53	-1944.39	  619.32
      8.3700	  807.00	  750.73	-1944.39	  617.52
      8.4700	  770.00	  748.95	-1944.39	  615.74
      8.5700	  800.00	  747.18	-1944.39	  613.96
      8.6700	  783.00	  745.42	-1944.39	  612.21
      8.7700	  703.00	  743.67	-1944.39	  610.46
      8.8700	  766.00	  741.94	-1944.39	  608.73
      8.9700	  725.00	  740.22	-1944.39	  607.00
      9.0700	  771.00	  738.51	-1944.39	  605.29
      9.1700	  753.00	  736.81	-1944.39	  603.60
      9.2700	  741.00	  735.13	-1944.39	  601.91
      9.3700	  707.00	  733.45	-1944.39	  600.24
      9.4700	  750.00	  731.79	-1944.39	  598.58
      9.5700	  735.00	  730.15	-1944.39	  596.93
      9.6700	  811.00	  728.51	-1944.39	  595.30
      9.7700	  742.00	  726.89	-1944.39	  593.67
      9.8700	  699.00	  725.27	-1944.39	  592.06
      9.9700	  735.00	  723.67	-1944.39	  590.46
     10.0700	  704.00	  724.19	-1964.58	  588.88
     10.1700	  762.00	  722.84	-1905.23	  587.30
     10.2700	  696.00	  721.55	-1969.94	  585.73
     10.3700	  728.00	  720.34	-1936.73	  584.18
     10.4700	  684.00	  719.22	-1979.61	  582.64
     10.5700	  684.00	  718.25	-1978.64	  581.11
     10.6700	  742.00	  717.49	-1919.87	  579.59
     10.7700	  741.00	  717.01	-1920.40	  578.09
     10.8700	  707.00	  716.91	-1954.30	  576.59
     10.9700	  744.00	  717.29	-1917.68	  575.11
     11.0700	  696.00	  718.18	-1966.56	  573.63
     11.1700	  742.00	  719.59	-1921.98	  572.17
     11.2700	  677.00	  721.55	-1988.94	  570.72
     11.3700	  729.00	  724.12	-1939.51	  569.28
     11.4700	  720.00	  727.38	-1951.77	  567.85
     11.5700	  708.00	  731.49	-1967.88	  566.44
     11.6700	  773.00	  736.70	-1908.09	  565.03
     11.7700	  763.00	  743.30	-1924.68	  563.63
     11.8700	  816.00	  751.56	-1879.95	  562.25
     11.9700	  809.00	  761.51	-1896.90	  560.88
     12.0700	  807.00	  772.49	-1909.88	  559.51
     12.1700	  845.00	  782.60	-1881.98	  558.16
     12.2700	  868.00	  788.17	-1864.55	  556.82
     12.3700	  837.00	  784.35	-1891.74	  555.49
     12.4700	  840.00	  769.32	-1873.71	  554.17
     12.5700	  719.00	  748.47	-1973.85	  552.86
     12.6700	  737.00	  728.90	-1936.29	  551.56
     12.7700	  713.00	  713.78	-1945.16	  550.27
     12.8700	  690.00	  703.09	-1957.47	  548.99
     12.9700	  690.00	  695.83	-1950.22	  547.72
     13.0700	  678.00	  690.84	-1957.22	  546.46
     13.1700	  676.00	  687.20	-1955.59	  545.21
     13.2700	  596.00	  684.34	-2032.73	  543.97
     13.3700	  671.00	  681.94	-1955.33	  542.74
     13.4700	  657.00	  679.83	-1967.22	  541.53
     13.5700	  649.00	  677.92	-1973.31	  540.32
     13.6700	  639.00	  676.16	-1981.55	  539.12
     13.7700	  671.00	  674.52	-1947.91	  537.93
     13.8700	  652.00	  672.96	-1965.35	  536.75
     13.9700	  678.00	  671.48	-1937.87	  535.58
     14.0700	  648.00	  670.06	-1966.44	  534.42
     14.1700	  701.00	  668.68	-1912.07	  533.27
     14.2700	  630.00	  667.35	-1981.74	  532.13
     14.3700	  639.00	  666.05	-1971.44	  531.00
     14.4700	  674.00	  664.78	-1935.17	  529.88
     14.5700	  663.00	  663.55	-1944.93	  528.77
     14.6700	  656.00	  662.33	-1950.72	  527.67
     14.7700	  651.00	  661.14	-1954.53	  526.57
     14.8700	  632.00	  659.97	-1972.36	  525.49
     14.9700	  613.00	  658.82	-1990.20	  524.41
     15.0700	  689.00	  657.68	-1913.07	  523.35
     15.1700	  679.00	  656.56	-1921.95	  522.29
     15.2700	  658.00	  655.46	-1941.84	  521.25
     15.3700	  648.00	  654.37	-1950.76	  520.21
     15.4700	  625.00	  653.29	-1972.68	  519.18
     15.5700	  613.00	  652.23	-1983.62	  518.16
     15.6700	  626.00	  651.18	-1969.57	  517.15
     15.7700	  626.00	  650.14	-1968.53	  516.14
     15.8700	  612.00	  649.12	-1981.50	  515.15
     15.9700	  673.00	  648.10	-1919.49	  514.17
     16.0700	  636.00	  647.10	-1955.49	  513.19
     16.1700	  680.00	  646.10	-1910.49	  512.22
     16.2700	  623.00	  645.12	-1966.51	  511.26
     16.3700	  655.00	  644.15	-1933.54	  510.31
     16.4700	  624.00	  643.19	-1963.58	  509.37
     16.5700	  661.00	  642.24	-1925.63	  508.44
     16.6700	  631.00	  641.30	-1954.68	  507.51
     16.7700	  623.00	  640.36	-1961.75	  506.60
     16.8700	  614.00	  639.44	-1969.83	  505.69
     16.9700	  662.00	  638.53	-1920.92	  504.79
     17.0700	  685.00	  637.62	-1897.01	  503.90
     17.1700	  644.00	  636.73	-1937.12	  503.01
     17.2700	  634.00	  635.84	-1946.23	  502.14
     17.3700	  681.00	  634.97	-1898.35	  501.27
     17.4700	  634.00	  634.10	-1944.48	  500.41
     17.5700	  665.00	  633.24	-1912.63	  499.56
     17.6700	  647.00	  632.39	-1929.77	  498.71
     17.7700	  610.00	  631.54	-1965.93	  497.88
     17.8700	  642.00	  630.71	-1933.10	  497.05
     17.9700	  663.00	  629.88	-1911.27	  496.23
     18.0700	  621.00	  629.07	-1952.45	  495.42
     18.1700	  612.00	  628.26	-1960.65	  494.62
     18.2700	  648.00	  627.46	-1923.84	  493.82
     18.3700	  669.00	  626.66	-1902.05	  493.03
     18.4700	  651.00	  625.88	-1919.27	  492.25
     18.5700	  637.00	  625.10	-1932.49	  491.48
     18.6700	  628.00	  624.33	-1940.72	  490.71
     18.7700	  620.00	  623.57	-1947.96	  489.95
     18.8700	  647.00	  622.82	-1920.21	  489.20
     18.9700	  613.00	  624.73	-1956.12	  488.46
     19.0700	  668.00	  624.05	-1900.44	  487.72
     19.1700	  604.00	  623.38	-1963.77	  486.99
     19.2700	  601.00	  622.72	-1966.10	  486.27
     19.3700	  618.00	  622.06	-1948.45	  485.55
     19.4700	  687.00	  621.42	-1878.81	  484.84
     19.5700	  620.00	  620.78	-1945.17	  484.14
     19.6700	  575.00	  620.16	-1989.55	  483.45
     19.7700	  661.00	  619.55	-1902.93	  482.76
     19.8700	  639.00	  618.94	-1924.33	  482.08
     19.9700	  601.00	  618.35	-1961.73	  481.41
     20.0700	  607.00	  617.76	-1955.15	  480.75
     20.1700	  589.00	  617.24	-1972.62	  480.09
     20.2700	  623.00	  616.67	-1938.06	  479.44
     20.3700	  609.00	  616.12	-1951.51	  478.79
     20.4700	  594.00	  615.58	-1965.97	  478.15
     20.5700	  593.00	  615.05	-1966.44	  477.52
     20.6700	  665.00	  614.53	-1893.91	  476.90
     20.7700	  627.00	  614.02	-1931.41	  476.28
     20.8700	  613.00	  613.52	-1944.91	  475.67
     20.9700	  608.00	  613.03	-1949.42	  475.06
     21.0700	  649.00	  612.56	-1907.95	  474.46
     21.1700	  598.00	  612.10	-1958.48	  473.87
     21.2700	  650.00	  611.65	-1906.03	  473.28
     21.3700	  617.00	  611.21	-1938.60	  472.70
     21.4700	  603.00	  610.79	-1952.17	  472.13
     21.5700	  579.00	  610.38	-1975.76	  471.56
     21.6700	  607.00	  609.98	-1947.37	  471.00
     21.7700	  589.00	  609.60	-1964.99	  470.45
     21.8700	  606.00	  609.23	-1947.62	  469.90
     21.9700	  589.00	  608.88	-1964.27	  469.36
     22.0700	  562.00	  608.55	-1990.94	  468.82
     22.1700	  624.00	  608.23	-1928.62	  468.29
     22.2700	  592.00	  607.94	-1960.33	  467.77
     22.3700	  667.00	  607.85	-1885.24	  467.25
     22.4700	  609.00	  607.60	-1942.99	  466.74
     22.5700	  609.00	  607.37	-1942.76	  466.23
     22.6700	  646.00	  607.17	-1905.56	  465.73
     22.7700	  652.00	  606.99	-1899.38	  465.24
     22.8700	  619.00	  606.84	-1932.23	  464.75
     22.9700	  591.00	  606.72	-1960.11	  464.26
     23.0700	  559.00	  606.64	-1992.03	  463.79
     23.1700	  611.00	  606.60	-1939.99	  463.32
     23.2700	  626.00	  606.61	-1924.99	  462.85
     23.3700	  589.00	  606.67	-1962.05	  462.39
     23.4700	  656.00	  606.79	-1895.18	  461.94
     23.5700	  602.00	  606.99	-1949.37	  461.49
     23.6700	  598.00	  607.28	-1953.67	  461.04
     23.7700	  610.00	  607.69	-1942.08	  460.60
     23.8700	  659.00	  608.28	-1893.67	  460.17
     23.9700	  611.00	  609.11	-1942.49	  459.74
     24.0700	  660.00	  610.31	-1894.70	  459.32
     24.1700	  624.00	  612.08	-1932.47	  458.90
     24.2700	  609.00	  614.68	-1950.06	  458.49
     24.3700	  636.00	  618.59	-1926.98	  458.09
     24.4700	  625.00	  624.20	-1943.58	  457.69
     24.5700	  668.00	  631.74	-1908.13	  457.29
     24.6700	  683.00	  641.12	-1902.50	  456.90
     24.7700	  678.00	  651.56	-1917.95	  456.51
     24.8700	  718.00	  661.34	-1887.73	  456.13
     24.9700	  730.00	  667.46	-1881.85	  455.76
     25.0700	  746.00	  666.64	-1865.03	  455.39
     25.1700	  681.00	  658.65	-1922.04	  455.02
     25.2700	  682.00	  647.62	-1910.01	  454.66
     25.3700	  615.00	  637.75	-1967.14	  454.30
     25.4700	  619.00	  630.57	-1955.96	  453.95
     25.5700	  611.00	  626.17	-1959.56	  453.60
     25.6700	  589.00	  624.00	-1979.39	  453.26
     25.7700	  611.00	  623.39	-1956.78	  452.93
     25.8700	  621.00	  623.85	-1947.23	  452.59
     25.9700	  615.00	  625.04	-1954.43	  452.27
     26.0700	  627.00	  626.81	-1944.20	  451.94
     26.1700	  642.00	  629.12	-1931.51	  451.62
     26.2700	  623.00	  631.96	-1953.35	  451.31
     26.3700	  673.00	  635.38	-1906.77	  451.00
     26.4700	  663.00	  639.46	-1920.85	  450.70
     26.5700	  637.00	  644.31	-1951.69	  450.40
     26.6700	  666.00	  650.07	-1928.45	  450.10
     26.7700	  650.00	  656.94	-1951.32	  449.81
     26.8700	  642.00	  665.18	-1967.57	  449.52
     26.9700	  645.00	  675.14	-1974.53	  449.24
     27.0700	  691.00	  687.32	-1940.71	  448.96
     27.1700	  674.00	  702.39	-1972.78	  448.69
     27.2700	  738.00	  721.37	-1927.75	  448.42
     27.3700	  684.00	  745.90	-2006.29	  448.15
     27.4700	  705.00	  779.16	-2018.55	  447.89
     27.5700	  729.00	  827.95	-2043.34	  447.63
     27.6700	  788.00	  906.95	-2063.33	  447.38
     27.7700	  807.00	 1045.25	-2182.64	  447.13
     27.8700	 1005.00	 1293.31	-2232.70	  446.88
     27.9700	 1269.00	 1724.59	-2399.98	  446.64
     28.0700	 1913.00	 2419.47	-2450.86	  446.40
     28.1700	 3191.00	 3418.88	-2172.27	  446.17
     28.2700	 4980.00	 4641.17	-1605.56	  445.94
     28.3700	 6540.00	 5787.76	-1192.15	  445.72
     28.4700	 7218.00	 6343.24	-1069.63	  445.49
     28.5700	 6403.00	 5896.52	-1437.91	  445.28
     28.6700	 4665.00	 4784.55	-2063.94	  445.06
     28.7700	 3514.00	 3791.16	-2221.55	  444.85
     28.8700	 3056.00	 3327.37	-2215.76	  444.65
     28.9700	 3462.00	 3367.81	-1850.20	  444.44
     29.0700	 3878.00	 3630.73	-1697.11	  444.24
     29.1700	 4014.00	 3736.17	-1666.55	  444.05
     29.2700	 3476.00	 3402.57	-1870.96	  443.85
     29.3700	 2728.00	 2720.29	-1936.68	  443.67
     29.4700	 1984.00	 2014.67	-1975.05	  443.48
     29.5700	 1366.00	 1478.24	-2056.62	  443.30
     29.6700	 1052.00	 1139.62	-2032.00	  443.12
     29.7700	  913.00	  950.28	-1981.67	  442.95
     29.8700	  861.00	  848.60	-1931.99	  442.78
     29.9700	  775.00	  790.67	-1960.06	  442.61
     30.0700	  782.00	  753.52	-1915.91	  442.44
     30.1700	  747.00	  727.23	-1924.62	  442.28
     30.2700	  681.00	  707.75	-1971.14	  442.13
     30.3700	  677.00	  693.41	-1960.80	  441.97
     30.4700	  683.00	  683.68	-1945.07	  441.82
     30.5700	  698.00	  678.90	-1925.29	  441.67
     30.6700	  680.00	  680.12	-1944.50	  441.53
     30.7700	  674.00	  688.60	-1958.99	  441.39
     30.8700	  671.00	  704.65	-1978.04	  441.25
     30.9700	  766.00	  726.07	-1904.46	  441.11
     31.0700	  754.00	  746.89	-1937.28	  440.98
     31.1700	  761.00	  757.24	-1940.63	  440.85
     31.2700	  750.00	  747.57	-1941.96	  440.72
     31.3700	  748.00	  719.54	-1915.93	  440.60
     31.4700	  747.00	  686.25	-1883.64	  440.48
     31.5700	  676.00	  657.96	-1926.35	  440.36
     31.6700	  629.00	  637.84	-1953.23	  440.25
     31.7700	  641.00	  625.04	-1928.43	  440.14
     31.8700	  641.00	  617.31	-1920.69	  440.03
     31.9700	  659.00	  612.53	-1897.92	  439.92
     32.0700	  647.00	  609.35	-1906.73	  439.82
     32.1700	  576.00	  607.05	-1975.44	  439.72
     32.2700	  602.00	  605.33	-1947.72	  439.62
     32.3700	  586.00	  604.04	-1962.43	  439.53
     32.4700	  632.00	  603.11	-1915.50	  439.43
     32.5700	  632.00	  602.52	-1914.91	  439.34
     32.6700	  644.00	  602.27	-1902.66	  439.26
     32.7700	  616.00	  602.36	-1930.75	  439.17
     32.8700	  580.00	  602.87	-1967.26	  439.09
     32.9700	  654.00	  603.80	-1894.18	  439.01
     33.0700	  577.00	  605.27	-1972.66	  438.94
     33.1700	  655.00	  607.47	-1896.86	  438.86
     33.2700	  607.00	  610.69	-1948.08	  438.79
     33.3700	  617.00	  615.53	-1942.92	  438.72
     33.4700	  653.00	  623.15	-1914.54	  438.66
     33.5700	  611.00	  635.76	-1969.15	  438.59
     33.6700	  669.00	  657.17	-1932.56	  438.53
     33.7700	  697.00	  692.91	-1940.30	  438.47
     33.8700	  797.00	  749.20	-1896.59	  438.41
     33.9700	  865.00	  829.60	-1908.98	  438.36
     34.0700	  936.00	  929.59	-1937.98	  438.31
     34.1700	 1149.00	 1031.78	-1827.17	  438.26
     34.2700	 1227.00	 1104.46	-1821.85	  438.21
     34.3700	 1267.00	 1110.95	-1788.34	  438.16
     34.4700	 1164.00	 1041.38	-1821.77	  438.12
     34.5700	  958.00	  931.41	-1917.80	  438.08
     34.6700	  820.00	  823.94	-1948.33	  438.04
     34.7700	  703.00	  740.02	-1981.40	  438.00
     34.8700	  750.00	  682.99	-1877.38	  437.97
     34.9700	  686.00	  647.85	-1906.24	  437.93
     35.0700	  697.00	  627.31	-1874.70	  437.90
     35.1700	  612.00	  615.20	-1947.59	  437.87
     35.2700	  661.00	  607.57	-1890.96	  437.85
     35.3700	  629.00	  602.31	-1917.70	  437.82
     35.4700	  638.00	  598.42	-1904.81	  437.80
     35.5700	  586.00	  595.40	-1953.79	  437.78
     35.6700	  591.00	  593.01	-1946.39	  437.76
     35.7700	  610.00	  591.07	-1925.46	  437.74
     35.8700	  618.00	  589.50	-1915.89	  437.73
     35.9700	  543.00	  588.22	-1989.61	  437.71
     36.0700	  612.00	  587.17	-1919.56	  437.70
     36.1700	  626.00	  586.31	-1904.70	  437.69
     36.2700	  573.00	  585.63	-1957.02	  437.68
     36.3700	  603.00	  585.10	-1926.48	  437.68
     36.4700	  625.00	  584.70	-1904.09	  437.67
     36.5700	  586.00	  584.44	-1942.83	  437.67
     36.6700	  612.00	  584.31	-1916.70	  437.67
     36.7700	  604.00	  584.33	-1924.72	  437.67
     36.8700	  580.00	  584.51	-1948.89	  437.67
     36.9700	  625.00	  584.87	-1904.26	  437.67
     37.0700	  593.00	  586.18	-1937.57	  437.68
     37.1700	  608.00	  587.15	-1923.53	  437.69
     37.2700	  576.00	  588.62	-1957.01	  437.69
     37.3700	  623.00	  590.86	-1912.24	  437.70
     37.4700	  561.00	  594.38	-1977.76	  437.71
     37.5700	  614.00	  599.95	-1930.34	  437.73
     37.6700	  586.00	  608.53	-1966.92	  437.74
     37.7700	  644.00	  621.45	-1921.84	  437.76
     37.8700	  644.00	  639.80	-1940.19	  437.78
     37.9700	  664.00	  663.69	-1944.07	  437.79
     38.0700	  702.00	  691.28	-1933.67	  437.81
     38.1700	  705.00	  716.54	-1955.93	  437.84
     38.2700	  714.00	  735.30	-1965.68	  437.86
     38.3700	  667.00	  737.26	-2014.65	  437.88
     38.4700	  737.00	  719.48	-1926.87	  437.91
     38.5700	  633.00	  689.65	-2001.04	  437.93
     38.6700	  645.00	  658.61	-1958.00	  437.96
     38.7700	  610.00	  632.72	-1967.11	  437.99
     38.8700	  602.00	  613.83	-1956.22	  438.02
     38.9700	  589.00	  601.33	-1956.72	  438.05
     39.0700	  621.00	  593.58	-1916.97	  438.09
     39.1700	  570.00	  588.89	-1963.28	  438.12
     39.2700	  615.00	  585.98	-1915.37	  438.16
     39.3700	  559.00	  584.07	-1969.45	  438.19
     39.4700	  585.00	  582.70	-1942.09	  438.23
     39.5700	  582.00	  580.74	-1943.13	  438.27
     39.6700	  568.00	  579.97	-1956.36	  438.31
     39.7700	  595.00	  579.36	-1928.75	  438.35
     39.8700	  609.00	  578.88	-1914.27	  438.39
     39.9700	  569.00	  578.51	-1953.89	  438.43
     40.0700	  585.00	  578.21	-1937.60	  438.48
     40.1700	  589.00	  577.98	-1933.37	  438.52
     40.2700	  576.00	  577.81	-1946.20	  438.57
     40.3700	  615.00	  577.69	-1907.08	  438.61
     40.4700	  584.00	  577.62	-1938.01	  438.66
     40.5700	  602.00	  577.58	-1919.97	  438.71
     40.6700	  601.00	  577.59	-1920.97	  438.76
     40.7700	  564.00	  578.15	-1958.54	  438.81
     40.8700	  606.00	  578.24	-1916.62	  438.86
     40.9700	  559.00	  578.35	-1963.74	  438.91
     41.0700	  595.00	  578.51	-1927.90	  438.97
     41.1700	  560.00	  578.71	-1963.10	  439.02
     41.2700	  573.00	  578.96	-1950.35	  439.08
     41.3700	  576.00	  579.32	-1947.71	  439.13
     41.4700	  557.00	  579.69	-1967.08	  439.19
     41.5700	  621.00	  580.15	-1903.53	  439.24
     41.6700	  548.00	  580.70	-1977.09	  439.30
     41.7700	  590.00	  581.38	-1935.77	  439.36
     41.8700	  587.00	  582.26	-1939.64	  439.42
     41.9700	  566.00	  583.42	-1961.81	  439.48
     42.0700	  575.00	  585.06	-1954.45	  439.54
     42.1700	  644.00	  587.52	-1887.91	  439.60
     42.2700	  561.00	  591.39	-1974.77	  439.66
     42.3700	  611.00	  597.49	-1930.87	  439.72
     42.4700	  576.00	  606.78	-1975.17	  439.78
     42.5700	  619.00	  620.24	-1945.63	  439.85
     42.6700	  598.00	  638.02	-1984.41	  439.91
     42.7700	  603.00	  658.90	-2000.29	  439.98
     42.8700	  625.00	  679.43	-1998.82	  440.04
     42.9700	  649.00	  693.83	-1989.22	  440.11
     43.0700	  689.00	  696.05	-1951.44	  440.17
     43.1700	  665.00	  684.68	-1964.06	  440.24
     43.2700	  640.00	  664.86	-1969.25	  440.31
     43.3700	  624.00	  643.45	-1963.84	  440.37
     43.4700	  594.00	  624.89	-1975.27	  440.44
     43.5700	  599.00	  610.53	-1955.92	  440.51
     43.6700	  617.00	  600.53	-1927.92	  440.58
     43.7700	  659.00	  594.05	-1879.44	  440.65
     43.8700	  600.00	  590.05	-1934.44	  440.72
     43.9700	  598.00	  587.81	-1934.19	  440.79
     44.0700	  585.00	  586.29	-1945.67	  440.86
     44.1700	  570.00	  585.29	-1959.68	  440.93
     44.2700	  559.00	  584.60	-1969.99	  441.00
     44.3700	  586.00	  584.12	-1942.50	  441.07
     44.4700	  621.00	  583.77	-1907.16	  441.14
     44.5700	  609.00	  583.53	-1918.91	  441.21
     44.6700	  599.00	  583.37	-1928.75	  441.28
     44.7700	  602.00	  583.27	-1925.66	  441.35
     44.8700	  585.00	  583.24	-1942.62	  441.43
     44.9700	  574.00	  583.48	-1953.87	  441.50
     45.0700	  592.00	  583.56	-1935.94	  441.57
     45.1700	  564.00	  583.65	-1964.04	  441.65
     45.2700	  599.00	  583.78	-1929.17	  441.72
     45.3700	  600.00	  583.94	-1928.33	  441.79
     45.4700	  578.00	  584.13	-1950.52	  441.87
     45.5700	  609.00	  584.35	-1919.74	  441.94
     45.6700	  614.00	  584.60	-1914.99	  442.01
     45.7700	  602.00	  584.97	-1927.35	  442.09
     45.8700	  636.00	  585.28	-1893.66	  442.16
     45.9700	  609.00	  585.62	-1921.01	  442.24
     46.0700	  545.00	  585.99	-1985.38	  442.31
     46.1700	  632.00	  586.41	-1898.79	  442.38
     46.2700	  602.00	  586.86	-1929.25	  442.46
     46.3700	  633.00	  587.36	-1898.75	  442.53
     46.4700	  586.00	  587.73	-1946.12	  442.61
     46.5700	  545.00	  588.47	-1987.86	  442.68
     46.6700	  626.00	  589.16	-1907.54	  442.76
     46.7700	  597.00	  589.93	-1937.32	  442.83
     46.8700	  618.00	  590.81	-1917.20	  442.90
     46.9700	  547.00	  591.82	-1989.21	  442.98
     47.0700	  579.00	  593.02	-1958.41	  443.05
     47.1700	  556.00	  594.50	-1982.89	  443.13
     47.2700	  567.00	  596.43	-1973.82	  443.20
     47.3700	  615.00	  599.07	-1928.46	  443.28
     47.4700	  566.00	  602.87	-1981.25	  443.35
     47.5700	  619.00	  608.38	-1933.77	  443.42
     47.6700	  609.00	  616.28	-1951.66	  443.50
     47.7700	  603.00	  627.04	-1968.43	  443.57
     47.8700	  646.00	  640.79	-1939.18	  443.64
     47.9700	  639.00	  656.81	-1962.20	  443.72
     48.0700	  640.00	  673.14	-1977.53	  443.79
     48.1700	  679.00	  686.32	-1951.71	  443.86
     48.2700	  680.00	  692.28	-1956.67	  443.94
     48.3700	  672.00	  689.03	-1961.41	  444.01
     48.4700	  678.00	  678.65	-1945.04	  444.08
     48.5700	  603.00	  665.90	-2007.29	  444.16
     48.6700	  616.00	  653.51	-1981.90	  444.23
     48.7700	  661.00	  643.84	-1927.23	  444.30
     48.8700	  618.00	  637.58	-1963.97	  444.37
     48.9700	  599.00	  634.69	-1980.08	  444.44
     49.0700	  672.00	  634.77	-1907.16	  444.51
     49.1700	  657.00	  637.38	-1924.77	  444.58
     49.2700	  634.00	  642.24	-1952.63	  444.65
     49.3700	  621.00	  649.44	-1972.83	  444.73
     49.4700	  651.00	  659.70	-1953.09	  444.80
     49.5700	  655.00	  675.01	-1964.40	  444.86
     49.6700	  644.00	  699.95	-2000.33	  444.93
     49.7700	  738.00	  743.90	-1950.28	  445.00
     49.8700	  798.00	  823.53	-1969.92	  445.07
     49.9700	  987.00	  963.54	-1920.93	  445.14
     50.0700	 1201.00	 1191.97	-1935.36	  445.21
     50.1700	 1684.00	 1528.01	-1788.40	  445.28
     50.2700	 2086.00	 1962.88	-1821.26	  445.34
     50.3700	 2526.00	 2441.46	-1859.85	  445.41
     50.4700	 2940.00	 2854.29	-1858.68	  445.48
     50.5700	 2981.00	 3059.78	-2023.17	  445.54
     50.6700	 2840.00	 2964.78	-2069.17	  445.61
     50.7700	 2476.00	 2611.99	-2080.38	  445.67
     50.8700	 2108.00	 2142.01	-1978.40	  445.74
     50.9700	 1604.00	 1685.62	-2026.01	  445.80
     51.0700	 1279.00	 1317.41	-1982.80	  445.87
     51.1700	 1005.00	 1060.56	-1999.95	  445.93
     51.2700	  831.00	  902.60	-2015.99	  445.99
     51.3700	  841.00	  815.07	-1918.45	  446.06
     51.4700	  778.00	  768.94	-1935.33	  446.12
     51.5700	  745.00	  742.75	-1942.14	  446.18
     51.6700	  743.00	  724.07	-1925.46	  446.24
     51.7700	  644.00	  708.12	-2008.51	  446.30
     51.8700	  679.00	  694.28	-1959.67	  446.36
     51.9700	  687.00	  683.00	-1940.39	  446.42
     52.0700	  619.00	  674.49	-1999.88	  446.48
     52.1700	  646.00	  668.45	-1966.84	  446.54
     52.2700	  687.00	  664.10	-1921.49	  446.60
     52.3700	  677.00	  660.62	-1928.01	  446.65
     52.4700	  704.00	  657.66	-1898.05	  446.71
     52.5700	  668.00	  655.55	-1931.94	  446.77
     52.6700	  664.00	  654.96	-1935.35	  446.82
     52.7700	  675.00	  656.68	-1926.07	  446.88
     52.8700	  665.00	  661.75	-1941.14	  446.93
     52.9700	  669.00	  671.64	-1947.03	  446.99
     53.0700	  709.00	  688.52	-1923.91	  447.04
     53.1700	  743.00	  715.28	-1916.67	  447.09
     53.2700	  796.00	  755.24	-1903.63	  447.14
     53.3700	  800.00	  811.37	-1955.76	  447.20
     53.4700	  943.00	  884.98	-1886.37	  447.25
     53.5700	 1009.00	  974.19	-1909.58	  447.30
     53.6700	 1042.00	 1072.08	-1974.47	  447.35
     53.7700	 1311.00	 1164.42	-1797.80	  447.40
     53.8700	 1315.00	 1230.12	-1859.51	  447.44
     53.9700	 1293.00	 1247.91	-1899.30	  447.49
     54.0700	 1228.00	 1210.80	-1927.18	  447.54
     54.1700	 1191.00	 1132.48	-1885.87	  447.59
     54.2700	 1084.00	 1036.11	-1896.50	  447.63
     54.3700	  910.00	  940.78	-1975.17	  447.68
     54.4700	  817.00	  857.66	-1985.05	  447.72
     54.5700	  765.00	  791.44	-1970.83	  447.76
     54.6700	  692.00	  742.50	-1994.89	  447.81
     54.7700	  699.00	  708.61	-1954.00	  447.85
     54.8700	  683.00	  686.41	-1947.80	  447.89
     54.9700	  656.00	  672.55	-1960.94	  447.93
     55.0700	  676.00	  664.28	-1932.66	  447.97
     55.1700	  651.00	  659.63	-1953.02	  448.01
     55.2700	  606.00	  657.40	-1995.79	  448.05
     55.3700	  638.00	  656.87	-1963.26	  448.09
     55.4700	  702.00	  657.71	-1900.10	  448.12
     55.5700	  659.00	  659.77	-1945.16	  448.16
     55.6700	  639.00	  663.07	-1968.46	  448.20
     55.7700	  685.00	  667.73	-1927.12	  448.23
     55.8700	  638.00	  674.02	-1980.41	  448.27
     55.9700	  681.00	  682.48	-1945.87	  448.30
     56.0700	  709.00	  694.15	-1929.54	  448.33
     56.1700	  692.00	  710.99	-1963.37	  448.36
     56.2700	  716.00	  736.55	-1964.93	  448.39
     56.3700	  738.00	  776.79	-1983.18	  448.42
     56.4700	  798.00	  840.73	-1987.12	  448.45
     56.5700	  887.00	  940.25	-1997.64	  448.48
     56.6700	 1062.00	 1088.49	-1970.88	  448.51
     56.7700	 1341.00	 1295.93	-1899.32	  448.54
     56.8700	 1609.00	 1565.14	-1900.53	  448.56
     56.9700	 1940.00	 1884.35	-1888.74	  448.59
     57.0700	 2273.00	 2221.66	-1893.04	  448.61
     57.1700	 2583.00	 2520.85	-1882.24	  448.64
     57.2700	 2665.00	 2707.02	-1986.41	  448.66
     57.3700	 2685.00	 2717.77	-1977.16	  448.68
     57.4700	 2448.00	 2548.70	-2045.09	  448.70
     57.5700	 2195.00	 2258.29	-2007.67	  448.72
     57.6700	 1817.00	 1923.22	-2050.61	  448.74
     57.7700	 1566.00	 1602.57	-1980.95	  448.76
     57.8700	 1275.00	 1330.49	-1999.88	  448.78
     57.9700	 1002.00	 1120.57	-2062.95	  448.80
     58.0700	  940.00	  971.71	-1976.10	  448.81
     58.1700	  813.00	  874.60	-2005.99	  448.83
     58.2700	  773.00	  817.54	-1988.93	  448.84
     58.3700	  719.00	  790.67	-2016.06	  448.86
     58.4700	  785.00	  787.50	-1946.89	  448.87
     58.5700	  778.00	  805.47	-1971.86	  448.88
     58.6700	  842.00	  844.09	-1946.48	  448.89
     58.7700	  936.00	  902.97	-1911.36	  448.90
     58.8700	  962.00	  979.74	-1962.12	  448.91
     58.9700	 1042.00	 1068.29	-1970.67	  448.92
     59.0700	 1145.00	 1157.98	-1957.36	  448.93
     59.1700	 1219.00	 1235.68	-1961.07	  448.93
     59.2700	 1279.00	 1292.00	-1957.39	  448.94
     59.3700	 1326.00	 1324.65	-1943.04	  448.94
     59.4700	 1300.00	 1333.73	-1978.11	  448.95
     59.5700	 1316.00	 1318.42	-1946.81	  448.95
     59.6700	 1320.00	 1282.15	-1906.54	  448.95
     59.7700	 1223.00	 1236.51	-1957.90	  448.95
     59.8700	 1246.00	 1196.31	-1894.70	  448.95
     59.9700	 1234.00	 1172.96	-1883.34	  448.95
     60.0700	 1250.00	 1173.76	-1868.15	  448.95
     60.1700	 1239.00	 1204.00	-1909.39	  448.95
     60.2700	 1358.00	 1266.49	-1852.88	  448.94
     60.3700	 1434.00	 1357.95	-1868.34	  448.94
     60.4700	 1499.00	 1465.37	-1910.76	  448.93
     60.5700	 1625.00	 1565.01	-1884.39	  448.93
     60.6700	 1643.00	 1625.45	-1926.84	  448.92
     60.7700	 1666.00	 1619.38	-1897.77	  448.91
     60.8700	 1486.00	 1541.26	-1999.65	  448.90
     60.9700	 1328.00	 1411.34	-2027.73	  448.89
     61.0700	 1198.00	 1260.06	-2006.45	  448.88
     61.1700	 1051.00	 1113.19	-2006.58	  448.87
     61.2700	  969.00	  987.31	-1962.70	  448.86
     61.3700	  918.00	  890.43	-1916.82	  448.84
     61.4700	  826.00	  824.09	-1942.48	  448.83
     61.5700	  786.00	  786.20	-1944.58	  448.81
     61.6700	  759.00	  773.89	-1959.28	  448.80
     61.7700	  825.00	  785.81	-1905.20	  448.78
     61.8700	  841.00	  822.90	-1926.29	  448.76
     61.9700	  971.00	  887.91	-1861.30	  448.74
     62.0700	  993.00	  983.57	-1934.96	  448.72
     62.1700	 1173.00	 1109.88	-1881.27	  448.70
     62.2700	 1312.00	 1261.47	-1893.86	  448.68
     62.3700	 1462.00	 1425.10	-1907.49	  448.66
     62.4700	 1493.00	 1578.31	-2029.70	  448.63
     62.5700	 1694.00	 1690.42	-1940.80	  448.61
     62.6700	 1743.00	 1730.80	-1932.19	  448.58
     62.7700	 1612.00	 1686.08	-2018.47	  448.56
     62.8700	 1582.00	 1570.14	-1932.53	  448.53
     62.9700	 1394.00	 1413.91	-1964.30	  448.50
     63.0700	 1216.00	 1247.96	-1976.35	  448.47
     63.1700	 1040.00	 1094.34	-1998.73	  448.44
     63.2700	  927.00	  965.63	-1983.01	  448.41
     63.3700	  842.00	  866.49	-1968.88	  448.37
     63.4700	  783.00	  795.71	-1957.09	  448.34
     63.5700	  734.00	  748.68	-1959.07	  448.31
     63.6700	  733.00	  719.66	-1931.05	  448.27
     63.7700	  725.00	  703.47	-1922.86	  448.23
     63.8700	  736.00	  696.46	-1904.85	  448.20
     63.9700	  733.00	  696.60	-1907.99	  448.16
     64.0700	  707.00	  703.54	-1940.93	  448.12
     64.1700	  749.00	  718.35	-1913.73	  448.08
     64.2700	  747.00	  742.75	-1940.14	  448.04
     64.3700	  794.00	  780.72	-1931.11	  448.00
     64.4700	  868.00	  834.96	-1911.34	  447.95
     64.5700	  982.00	  907.97	-1870.36	  447.91
     64.6700	 1042.00	 1000.46	-1902.85	  447.86
     64.7700	 1191.00	 1110.02	-1863.40	  447.82
     64.8700	 1196.00	 1229.73	-1978.12	  447.77
     64.9700	 1409.00	 1347.42	-1882.80	  447.72
     65.0700	 1399.00	 1446.52	-1991.91	  447.68
     65.1700	 1484.00	 1509.89	-1970.28	  447.63
     65.2700	 1471.00	 1525.02	-1998.41	  447.58
     65.3700	 1458.00	 1488.74	-1975.13	  447.52
     65.4700	 1308.00	 1409.04	-2045.43	  447.47
     65.5700	 1260.00	 1302.92	-1987.31	  447.42
     65.6700	 1145.00	 1188.55	-1987.94	  447.36
     65.7700	 1033.00	 1079.12	-1990.51	  447.31
     65.8700	  953.00	  982.69	-1974.08	  447.25
     65.9700	  861.00	  902.50	-1985.89	  447.20
     66.0700	  790.00	  838.68	-1993.06	  447.14
     66.1700	  789.00	  789.84	-1945.23	  447.08
     66.2700	  720.00	  753.80	-1978.19	  447.02
     66.3700	  667.00	  727.84	-2005.23	  446.96
     66.4700	  644.00	  709.60	-2009.99	  446.90
     66.5700	  689.00	  697.09	-1952.48	  446.83
     66.6700	  670.00	  688.90	-1963.29	  446.77
     66.7700	  678.00	  684.08	-1950.47	  446.70
     66.8700	  678.00	  682.07	-1948.46	  446.64
     66.9700	  662.00	  682.62	-1965.01	  446.57
     67.0700	  631.00	  685.80	-1999.19	  446.51
     67.1700	  701.00	  692.14	-1935.53	  446.44
     67.2700	  700.00	  702.57	-1946.96	  446.37
     67.3700	  681.00	  719.20	-1982.59	  446.30
     67.4700	  716.00	  744.93	-1973.31	  446.23
     67.5700	  776.00	  784.39	-1952.78	  446.15
     67.6700	  827.00	  843.57	-1960.96	  446.08
     67.7700	  919.00	  929.47	-1954.86	  446.01
     67.8700	 1103.00	 1049.02	-1890.41	  445.93
     67.9700	 1212.00	 1207.41	-1939.80	  445.86
     68.0700	 1487.00	 1405.89	-1863.28	  445.78
     68.1700	 1693.00	 1639.43	-1890.82	  445.70
     68.2700	 1916.00	 1894.72	-1923.11	  445.63
     68.3700	 2212.00	 2148.55	-1880.94	  445.55
     68.4700	 2359.00	 2367.29	-1952.68	  445.47
     68.5700	 2464.00	 2510.86	-1991.25	  445.39
     68.6700	 2488.00	 2545.35	-2001.73	  445.30
     68.7700	 2388.00	 2461.43	-2017.82	  445.22
     68.8700	 2252.00	 2280.67	-1973.05	  445.14
     68.9700	 2023.00	 2041.95	-1963.34	  445.05
     69.0700	 1826.00	 1783.60	-1901.98	  444.97
     69.1700	 1521.00	 1534.88	-1958.27	  444.88
     69.2700	 1365.00	 1314.71	-1894.10	  444.79
     69.3700	 1126.00	 1132.60	-1950.99	  444.71
     69.4700	 1016.00	  990.68	-1919.07	  444.62
     69.5700	  927.00	  885.71	-1903.10	  444.53
     69.6700	  895.00	  811.48	-1860.87	  444.44
     69.7700	  846.00	  760.84	-1859.22	  444.35
     69.8700	  814.00	  727.08	-1857.47	  444.25
     69.9700	  761.00	  704.79	-1888.18	  444.16
     70.0700	  707.00	  689.95	-1927.34	  444.07
     70.1700	  721.00	  679.89	-1903.28	  443.97
     70.2700	  733.00	  672.92	-1884.31	  443.88
     70.3700	  674.00	  668.05	-1938.43	  443.78
     70.4700	  679.00	  664.72	-1930.11	  443.68
     70.5700	  685.00	  662.63	-1922.02	  443.58
     70.6700	  689.00	  661.66	-1917.05	  443.48
     70.7700	  686.00	  661.80	-1920.18	  443.38
     70.8700	  653.00	  663.16	-1954.55	  443.28
     70.9700	  717.00	  665.85	-1893.24	  443.18
     71.0700	  685.00	  670.77	-1930.16	  443.08
     71.1700	  720.00	  678.61	-1902.99	  442.98
     71.2700	  755.00	  690.77	-1880.16	  442.87
     71.3700	  748.00	  709.34	-1905.73	  442.77
     71.4700	  786.00	  737.19	-1895.58	  442.66
     71.5700	  794.00	  777.94	-1928.33	  442.56
     71.6700	  851.00	  835.70	-1929.09	  442.45
     71.7700	  924.00	  914.54	-1934.93	  442.34
     71.8700	  983.00	 1017.65	-1979.03	  442.23
     71.9700	 1179.00	 1146.13	-1911.52	  442.12
     72.0700	 1370.00	 1297.94	-1872.33	  442.01
     72.1700	 1461.00	 1466.76	-1950.15	  441.90
     72.2700	 1632.00	 1641.20	-1953.59	  441.79
     72.3700	 1733.00	 1804.23	-2015.62	  441.68
     72.4700	 1934.00	 1933.64	-1944.03	  441.56
     72.5700	 1912.00	 2006.09	-2038.48	  441.45
     72.6700	 1952.00	 2005.67	-1998.05	  441.34
     72.7700	 1932.00	 1932.42	-1944.81	  441.22
     72.8700	 1745.00	 1803.05	-2002.44	  441.10
     72.9700	 1630.00	 1639.47	-1953.86	  440.99
     73.0700	 1402.00	 1464.53	-2006.92	  440.87
     73.1700	 1342.00	 1295.23	-1897.62	  440.75
     73.2700	 1118.00	 1142.85	-1969.24	  440.63
     73.3700	 1020.00	 1013.57	-1937.96	  440.51
     73.4700	  877.00	  909.39	-1976.78	  440.39
     73.5700	  870.00	  829.18	-1903.56	  440.27
     73.6700	  732.00	  769.82	-1982.21	  440.15
     73.7700	  700.00	  727.32	-1971.71	  440.02
     73.8700	  699.00	  697.64	-1943.03	  439.90
     73.9700	  661.00	  677.24	-1960.63	  439.77
     74.0700	  682.00	  662.84	-1925.22	  439.65
     74.1700	  687.00	  653.46	-1910.84	  439.52
     74.2700	  665.00	  647.23	-1926.62	  439.40
     74.3700	  646.00	  643.32	-1941.71	  439.27
     74.4700	  660.00	  641.20	-1925.59	  439.14
     74.5700	  631.00	  640.51	-1953.90	  439.01
     74.6700	  669.00	  640.99	-1916.38	  438.89
     74.7700	  651.00	  642.36	-1935.75	  438.76
     74.8700	  639.00	  644.30	-1949.69	  438.63
     74.9700	  669.00	  646.40	-1921.79	  438.49
     75.0700	  702.00	  648.14	-1890.52	  438.36
     75.1700	  668.00	  649.10	-1925.49	  438.23
     75.2700	  663.00	  648.89	-1930.27	  438.10
     75.3700	  702.00	  647.43	-1889.82	  437.96
     75.4700	  745.00	  645.08	-1844.47	  437.83
     75.5700	  685.00	  642.44	-1901.82	  437.69
     75.6700	  744.00	  640.22	-1840.61	  437.56
     75.7700	  694.00	  639.21	-1889.60	  437.42
     75.8700	  656.00	  640.11	-1928.50	  437.29
     75.9700	  645.00	  643.95	-1943.33	  437.15
     76.0700	  663.00	  651.54	-1932.93	  437.01
     76.1700	  680.00	  663.84	-1928.23	  436.87
     76.2700	  689.00	  681.71	-1937.10	  436.73
     76.3700	  708.00	  705.80	-1942.18	  436.59
     76.4700	  710.00	  736.34	-1970.73	  436.45
     76.5700	  758.00	  773.00	-1959.39	  436.31
     76.6700	  841.00	  814.62	-1918.01	  436.17
     76.7700	  868.00	  859.07	-1935.46	  436.03
     76.8700	  881.00	  903.14	-1966.53	  435.89
     76.9700	  914.00	  942.48	-1972.87	  435.74
     77.0700	  906.00	  971.92	-2010.31	  435.60
     77.1700	  974.00	  986.53	-1956.91	  435.46
     77.2700	  948.00	  983.38	-1979.77	  435.31
     77.3700	  937.00	  963.03	-1970.42	  435.17
     77.4700	  885.00	  929.18	-1988.57	  435.02
     77.5700	  871.00	  886.98	-1960.37	  434.88
     77.6700	  860.00	  841.19	-1925.58	  434.73
     77.7700	  850.00	  796.19	-1890.58	  434.58
     77.8700	  768.00	  754.61	-1930.99	  434.43
     77.9700	  730.00	  718.19	-1932.58	  434.29
     78.0700	  687.00	  687.77	-1945.15	  434.14
     78.1700	  676.00	  663.38	-1931.77	  433.99
     78.2700	  626.00	  644.57	-1962.96	  433.84
     78.3700	  658.00	  630.54	-1916.93	  433.69
     78.4700	  633.00	  620.37	-1931.76	  433.54
     78.5700	  585.00	  613.15	-1972.54	  433.39
     78.6700	  629.00	  608.10	-1923.49	  433.24
     78.7700	  584.00	  604.55	-1964.94	  433.08
     78.8700	  595.00	  602.13	-1951.51	  432.93
     78.9700	  573.00	  600.46	-1971.85	  432.78
     79.0700	  619.00	  599.34	-1924.72	  432.63
     79.1700	  636.00	  598.63	-1907.02	  432.47
     79.2700	  599.00	  598.27	-1943.66	  432.32
     79.3700	  583.00	  598.23	-1959.62	  432.16
     79.4700	  592.00	  598.52	-1950.90	  432.01
     79.5700	  625.00	  599.15	-1918.54	  431.85
     79.6700	  608.00	  600.18	-1936.57	  431.70
     79.7700	  605.00	  601.70	-1941.08	  431.54
     79.8700	  581.00	  603.81	-1967.20	  431.39
     79.9700	  638.00	  606.72	-1913.11	  431.23
     80.0700	  641.00	  610.71	-1914.10	  431.07
     80.1700	  584.00	  616.23	-1976.62	  430.92
     80.2700	  657.00	  623.91	-1911.29	  430.76
     80.3700	  667.00	  634.64	-1912.02	  430.60
     80.4700	  683.00	  649.35	-1910.74	  430.44
     80.5700	  695.00	  669.92	-1919.31	  430.28
     80.6700	  725.00	  697.71	-1917.10	  430.12
     80.7700	  762.00	  734.30	-1916.69	  429.96
     80.8700	  784.00	  781.04	-1941.43	  429.80
     80.9700	  852.00	  838.69	-1931.08	  429.64
     81.0700	  957.00	  907.01	-1894.40	  429.48
     81.1700	 1035.00	  984.40	-1893.78	  429.32
     81.2700	 1024.00	 1067.57	-1987.96	  429.16
     81.3700	 1191.00	 1151.55	-1904.94	  429.00
     81.4700	 1293.00	 1229.80	-1881.19	  428.84
     81.5700	 1342.00	 1295.16	-1897.54	  428.68
     81.6700	 1352.00	 1341.24	-1933.62	  428.52
     81.7700	 1275.00	 1364.06	-2033.45	  428.36
     81.8700	 1320.00	 1362.64	-1987.03	  428.19
     81.9700	 1351.00	 1338.51	-1931.90	  428.03
     82.0700	 1256.00	 1295.17	-1983.55	  427.87
     82.1700	 1227.00	 1237.58	-1954.96	  427.70
     82.2700	 1125.00	 1171.32	-1990.71	  427.54
     82.3700	 1058.00	 1101.58	-1987.97	  427.38
     82.4700	 1007.00	 1032.62	-1970.00	  427.21
     82.5700	  981.00	  967.63	-1931.02	  427.05
     82.6700	  883.00	  908.82	-1970.21	  426.89
     82.7700	  847.00	  857.28	-1954.67	  426.72
     82.8700	  759.00	  813.08	-1998.47	  426.56
     82.9700	  771.00	  775.55	-1948.93	  426.39
     83.0700	  690.00	  743.69	-1998.08	  426.23
     83.1700	  704.00	  716.63	-1957.02	  426.06
     83.2700	  639.00	  693.74	-1999.13	  425.90
     83.3700	  657.00	  674.65	-1962.04	  425.73
     83.4700	  605.00	  659.13	-1998.52	  425.57
     83.5700	  633.00	  647.05	-1958.44	  425.40
     83.6700	  632.00	  638.28	-1950.67	  425.24
     83.7700	  652.00	  632.70	-1925.09	  425.07
     83.8700	  616.00	  630.13	-1958.51	  424.91
     83.9700	  606.00	  630.28	-1968.67	  424.74
     84.0700	  651.00	  632.77	-1926.16	  424.57
     84.1700	  638.00	  636.95	-1943.34	  424.41
     84.2700	  629.00	  642.43	-1957.81	  424.24
     84.3700	  639.00	  648.29	-1953.67	  424.08
     84.4700	  657.00	  653.57	-1940.96	  423.91
     84.5700	  651.00	  657.55	-1950.94	  423.74
     84.6700	  682.00	  659.33	-1921.72	  423.58
     84.7700	  617.00	  658.40	-1985.79	  423.41
     84.8700	  687.00	  654.72	-1912.11	  423.24
     84.9700	  605.00	  648.72	-1988.11	  423.08
     85.0700	  623.00	  641.10	-1962.49	  422.91
     85.1700	  635.00	  632.64	-1942.03	  422.74
     85.2700	  591.00	  624.05	-1977.44	  422.58
     85.3700	  618.00	  615.91	-1942.30	  422.41
     85.4700	  597.00	  608.69	-1956.07	  422.25
     85.5700	  584.00	  602.69	-1963.08	  422.08
     85.6700	  584.00	  598.12	-1958.51	  421.91
     85.7700	  573.00	  595.09	-1966.48	  421.75
     85.8700	  664.00	  593.65	-1874.04	  421.58
     85.9700	  625.00	  593.80	-1913.18	  421.41
     86.0700	  624.00	  595.51	-1915.90	  421.25
     86.1700	  589.00	  598.76	-1954.15	  421.08
     86.2700	  613.00	  603.49	-1934.87	  420.92
     86.3700	  628.00	  609.61	-1926.00	  420.75
     86.4700	  647.00	  617.01	-1914.39	  420.58
     86.5700	  618.00	  625.48	-1951.87	  420.42
     86.6700	  651.00	  634.78	-1928.17	  420.25
     86.7700	  625.00	  644.58	-1963.96	  420.09
     86.8700	  620.00	  654.45	-1978.84	  419.92
     86.9700	  633.00	  664.00	-1975.39	  419.76
     87.0700	  666.00	  672.84	-1951.23	  419.59
     87.1700	  641.00	  680.77	-1984.16	  419.43
     87.2700	  656.00	  687.85	-1976.24	  419.26
     87.3700	  697.00	  694.40	-1941.79	  419.10
     87.4700	  692.00	  700.81	-1953.20	  418.93
     87.5700	  683.00	  707.40	-1968.79	  418.77
     87.6700	  707.00	  714.25	-1951.64	  418.60
     87.7700	  722.00	  721.19	-1943.58	  418.44
     87.8700	  670.00	  727.73	-2002.12	  418.28
     87.9700	  761.00	  733.13	-1916.52	  418.11
     88.0700	  653.00	  736.46	-2027.85	  417.95
     88.1700	  677.00	  736.83	-2004.22	  417.79
     88.2700	  721.00	  733.66	-1957.05	  417.62
     88.3700	  681.00	  726.90	-1990.29	  417.46
     88.4700	  715.00	  717.04	-1946.43	  417.30
     88.5700	  734.00	  704.92	-1915.30	  417.14
     88.6700	  703.00	  691.50	-1932.89	  416.97
     88.7700	  666.00	  677.33	-1955.71	  416.81
     88.8700	  722.00	  664.07	-1886.46	  416.65
     88.9700	  684.00	  651.99	-1912.38	  416.49
     89.0700	  634.00	  641.62	-1952.01	  416.33
     89.1700	  619.00	  633.30	-1958.68	  416.17
     89.2700	  606.00	  627.18	-1965.57	  416.01
     89.3700	  611.00	  623.28	-1956.66	  415.85
     89.4700	  603.00	  621.42	-1962.81	  415.69
     89.5700	  618.00	  621.31	-1947.70	  415.53
     89.6700	  668.00	  622.55	-1898.94	  415.37
     89.7700	  642.00	  624.65	-1927.04	  415.21
     89.8700	  662.00	  627.06	-1909.45	  415.05
     89.9700	  658.00	  629.20	-1915.58	  414.89
     90.0700	  697.00	  630.51	-1877.90	  414.74
     90.1700	  688.00	  630.55	-1886.94	  414.58
     90.2700	  681.00	  629.10	-1892.49	  414.42
     90.3700	  653.00	  626.17	-1917.56	  414.27
     90.4700	  620.00	  622.00	-1946.38	  414.11
     90.5700	  611.00	  616.94	-1950.33	  413.96
     90.6700	  644.00	  611.40	-1911.79	  413.80
     90.7700	  631.00	  605.73	-1919.12	  413.65
     90.8700	  577.00	  600.23	-1967.62	  413.49
     90.9700	  578.00	  595.15	-1961.54	  413.34
     91.0700	  606.00	  590.63	-1929.02	  413.18
     91.1700	  660.00	  586.79	-1871.18	  413.03
     91.2700	  618.00	  583.65	-1910.04	  412.88
     91.3700	  562.00	  581.21	-1963.60	  412.73
     91.4700	  591.00	  579.43	-1932.82	  412.57
     91.5700	  629.00	  578.26	-1893.65	  412.42
     91.6700	  552.00	  577.65	-1970.03	  412.27
     91.7700	  606.00	  577.54	-1915.93	  412.12
     91.8700	  552.00	  577.93	-1970.32	  411.97
     91.9700	  624.00	  578.83	-1899.21	  411.82
     92.0700	  592.00	  580.27	-1932.66	  411.68
     92.1700	  596.00	  582.37	-1930.76	  411.53
     92.2700	  602.00	  585.24	-1927.63	  411.38
     92.3700	  562.00	  589.06	-1971.45	  411.23
     92.4700	  623.00	  594.03	-1915.42	  411.09
     92.5700	  606.00	  600.38	-1938.77	  410.94
     92.6700	  608.00	  608.33	-1944.72	  410.80
     92.7700	  616.00	  618.11	-1946.50	  410.65
     92.8700	  600.00	  629.88	-1974.27	  410.51
     92.9700	  605.00	  643.75	-1983.13	  410.36
     93.0700	  657.00	  659.72	-1947.11	  410.22
     93.1700	  622.00	  677.70	-2000.09	  410.08
     93.2700	  676.00	  697.44	-1965.83	  409.94
     93.3700	  667.00	  718.55	-1995.94	  409.80
     93.4700	  694.00	  740.47	-1990.86	  409.65
     93.5700	  694.00	  762.49	-2012.88	  409.51
     93.6700	  731.00	  783.80	-1997.19	  409.38
     93.7700	  757.00	  803.56	-1990.95	  409.24
     93.8700	  777.00	  821.11	-1988.50	  409.10
     93.9700	  779.00	  836.14	-2001.53	  408.96
     94.0700	  797.00	  848.81	-1996.20	  408.83
     94.1700	  836.00	  859.67	-1968.06	  408.69
     94.2700	  825.00	  869.49	-1988.88	  408.55
     94.3700	  860.00	  878.70	-1963.09	  408.42
     94.4700	  865.00	  888.53	-1967.92	  408.29
     94.5700	  879.00	  899.06	-1964.45	  408.15
     94.6700	  917.00	  910.58	-1937.97	  408.02
     94.7700	  888.00	  923.32	-1979.70	  407.89
     94.8700	  953.00	  937.47	-1928.86	  407.76
     94.9700	  992.00	  953.14	-1905.53	  407.63
     95.0700	  977.00	  970.17	-1937.56	  407.50
     95.1700	  999.00	  987.99	-1933.38	  407.37
     95.2700	 1008.00	 1005.56	-1941.95	  407.24
     95.3700	  996.00	 1021.36	-1969.75	  407.12
     95.4700	 1010.00	 1033.57	-1967.95	  406.99
     95.5700	 1067.00	 1040.23	-1917.62	  406.87
     95.6700	 1043.00	 1039.72	-1941.11	  406.74
     95.7700	  993.00	 1031.06	-1982.45	  406.62
     95.8700	 1029.00	 1014.30	-1929.68	  406.49
     95.9700	  995.00	  990.45	-1939.84	  406.37
     96.0700	  936.00	  961.33	-1969.72	  406.25
     96.1700	  911.00	  929.12	-1962.51	  406.13
     96.2700	  962.00	  896.14	-1878.52	  406.01
     96.3700	  857.00	  864.61	-1952.00	  405.89
     96.4700	  865.00	  836.61	-1915.99	  405.77
     96.5700	  872.00	  813.95	-1886.33	  405.66
     96.6700	  848.00	  798.18	-1894.57	  405.54
     96.7700	  790.00	  790.58	-1944.97	  405.43
     96.8700	  788.00	  792.16	-1948.55	  405.31
     96.9700	  852.00	  803.68	-1896.07	  405.20
     97.0700	  875.00	  825.64	-1895.03	  405.09
     97.1700	  852.00	  858.29	-1950.68	  404.97
     97.2700	  942.00	  901.58	-1903.96	  404.86
     97.3700	  995.00	  955.12	-1904.51	  404.75
     97.4700	 1081.00	 1018.12	-1881.51	  404.65
     97.5700	 1109.00	 1089.30	-1924.69	  404.54
     97.6700	 1239.00	 1166.84	-1872.23	  404.43
     97.7700	 1192.00	 1248.28	-2000.67	  404.33
     97.8700	 1315.00	 1330.59	-1959.98	  404.22
     97.9700	 1293.00	 1410.05	-2061.44	  404.12
     98.0700	 1437.00	 1482.47	-1989.86	  404.01
     98.1700	 1515.00	 1543.30	-1972.69	  403.91
     98.2700	 1562.00	 1588.17	-1970.56	  403.81
     98.3700	 1611.00	 1613.59	-1946.98	  403.71
     98.4700	 1543.00	 1617.65	-2019.03	  403.61
     98.5700	 1525.00	 1600.48	-2019.86	  403.51
     98.6700	 1568.00	 1564.16	-1940.55	  403.42
     98.7700	 1518.00	 1512.21	-1938.60	  403.32
     98.8700	 1464.00	 1448.82	-1929.21	  403.23
     98.9700	 1302.00	 1378.38	-2020.77	  403.13
     99.0700	 1279.00	 1304.99	-1970.38	  403.04
     99.1700	 1226.00	 1232.39	-1950.78	  402.95
     99.2700	 1157.00	 1163.84	-1951.22	  402.86
     99.3700	 1139.00	 1102.02	-1907.41	  402.77
     99.4700	 1067.00	 1049.22	-1926.60	  402.68
     99.5700	 1105.00	 1007.20	-1846.59	  402.59
     99.6700	  983.00	  977.39	-1938.78	  402.51
     99.7700	  985.00	  960.85	-1920.24	  402.42
     99.8700	  983.00	  958.27	-1919.66	  402.34
     99.9700	  995.00	  970.07	-1919.46	  402.26
    100.0700	 1017.00	  996.36	-1923.75	  402.18
    100.1700	 1049.00	 1036.97	-1932.36	  402.10
    100.2700	 1119.00	 1091.40	-1916.78	  402.02
    100.3700	 1160.00	 1158.76	-1943.15	  401.94
    100.4700	 1245.00	 1237.79	-1937.18	  401.86
    100.5700	 1306.00	 1326.75	-1965.14	  401.79
    100.6700	 1364.00	 1423.42	-2003.80	  401.71
    100.7700	 1502.00	 1524.88	-1967.27	  401.64
    100.8700	 1617.00	 1628.03	-1955.41	  401.57
    100.9700	 1764.00	 1728.99	-1909.38	  401.49
    101.0700	 1839.00	 1823.85	-1929.24	  401.42
    101.1700	 1931.00	 1908.86	-1922.24	  401.36
    101.2700	 1900.00	 1980.82	-2025.21	  401.29
    101.3700	 2065.00	 2037.53	-1916.91	  401.22
    101.4700	 2012.00	 2077.60	-2009.99	  401.16
    101.5700	 2078.00	 2100.40	-1966.79	  401.09
    101.6700	 2084.00	 2105.62	-1966.00	  401.03
    101.7700	 2141.00	 2093.23	-1896.62	  400.97
    101.8700	 2093.00	 2063.68	-1915.07	  400.91
    101.9700	 2132.00	 2018.18	-1830.57	  400.85
    102.0700	 2046.00	 1958.96	-1857.35	  400.80
    102.1700	 1942.00	 1889.26	-1891.65	  400.74
    102.2700	 1881.00	 1813.04	-1876.42	  400.68
    102.3700	 1775.00	 1734.35	-1903.74	  400.63
    102.4700	 1713.00	 1656.97	-1888.35	  400.58
    102.5700	 1621.00	 1583.91	-1907.30	  400.53
    102.6700	 1607.00	 1517.43	-1854.82	  400.48
    102.7700	 1494.00	 1458.89	-1909.28	  400.43
    102.8700	 1410.00	 1408.85	-1943.24	  400.38
    102.9700	 1392.00	 1367.13	-1919.52	  400.34
    103.0700	 1351.00	 1332.86	-1926.25	  400.30
    103.1700	 1330.00	 1304.61	-1919.00	  400.25
    103.2700	 1264.00	 1280.53	-1960.92	  400.21
    103.3700	 1237.00	 1258.45	-1965.84	  400.17
    103.4700	 1224.00	 1236.21	-1956.60	  400.13
    103.5700	 1266.00	 1211.89	-1890.28	  400.10
    103.6700	 1140.00	 1184.11	-1988.50	  400.06
    103.7700	 1119.00	 1152.22	-1977.61	  400.03
    103.8700	 1078.00	 1116.30	-1982.69	  399.99
    103.9700	 1070.00	 1076.97	-1951.36	  399.96
    104.0700	  974.00	 1035.22	-2005.61	  399.93
    104.1700	 1016.00	  992.17	-1920.56	  399.90
    104.2700	  958.00	  948.95	-1935.34	  399.87
    104.3700	  937.00	  906.57	-1913.96	  399.85
    104.4700	  871.00	  865.91	-1939.30	  399.82
    104.5700	  872.00	  827.69	-1900.08	  399.80
    104.6700	  783.00	  792.45	-1953.84	  399.78
    104.7700	  804.00	  760.57	-1900.96	  399.76
    104.8700	  773.00	  732.25	-1903.64	  399.74
    104.9700	  732.00	  707.47	-1919.86	  399.72
    105.0700	  708.00	  686.27	-1922.66	  399.71
    105.1700	  628.00	  668.39	-1984.78	  399.69
    105.2700	  654.00	  653.59	-1943.98	  399.68
    105.3700	  673.00	  641.54	-1912.93	  399.67
    105.4700	  667.00	  631.92	-1909.31	  399.66
    105.5700	  668.00	  624.41	-1900.80	  399.65
    105.6700	  649.00	  618.71	-1914.10	  399.65
    105.7700	  645.00	  614.51	-1913.90	  399.64
    105.8700	  655.00	  611.68	-1901.07	  399.64
    105.9700	  618.00	  610.01	-1936.40	  399.64
    106.0700	  593.00	  609.38	-1960.77	  399.64
    106.1700	  625.00	  609.70	-1929.09	  399.64
    106.2700	  635.00	  610.94	-1920.33	  399.64
    106.3700	  566.00	  613.10	-1991.49	  399.64
    106.4700	  632.00	  616.21	-1928.60	  399.65
    106.5700	  626.00	  620.32	-1938.71	  399.66
    106.6700	  670.00	  625.49	-1899.88	  399.67
    106.7700	  648.00	  631.79	-1928.18	  399.68
    106.8700	  631.00	  639.29	-1952.68	  399.69
    106.9700	  727.00	  648.02	-1865.41	  399.70
    107.0700	  660.00	  658.00	-1942.39	  399.72
    107.1700	  690.00	  669.17	-1923.56	  399.73
    107.2700	  678.00	  681.45	-1947.84	  399.75
    107.3700	  657.00	  694.66	-1982.05	  399.77
    107.4700	  688.00	  708.59	-1964.97	  399.80
    107.5700	  692.00	  722.94	-1975.33	  399.82
    107.6700	  776.00	  737.37	-1905.76	  399.84
    107.7700	  747.00	  751.46	-1948.84	  399.87
    107.8700	  776.00	  764.75	-1933.14	  399.90
    107.9700	  724.00	  776.78	-1997.17	  399.93
    108.0700	  759.00	  787.10	-1972.49	  399.96
    108.1700	  712.00	  795.31	-2027.70	  399.99
    108.2700	  754.00	  801.22	-1991.61	  400.03
    108.3700	  756.00	  804.76	-1993.15	  400.07
    108.4700	  747.00	  806.08	-2003.46	  400.10
    108.5700	  810.00	  805.51	-1939.90	  400.15
    108.6700	  802.00	  803.53	-1945.92	  400.19
    108.7700	  756.00	  800.63	-1989.02	  400.23
    108.8700	  779.00	  797.33	-1962.72	  400.28
    108.9700	  751.00	  794.08	-1987.46	  400.32
    109.0700	  752.00	  791.21	-1983.60	  400.37
    109.1700	  763.00	  788.99	-1970.38	  400.42
    109.2700	  766.00	  787.54	-1965.93	  400.47
    109.3700	  775.00	  786.88	-1956.27	  400.53
    109.4700	  736.00	  786.90	-1995.29	  400.58
    109.5700	  688.00	  787.38	-2043.77	  400.64
    109.6700	  757.00	  788.00	-1975.39	  400.70
    109.7700	  733.00	  788.36	-1999.75	  400.76
    109.8700	  700.00	  788.04	-2032.43	  400.82
    109.9700	  716.00	  786.62	-2015.01	  400.89
    110.0700	  800.00	  783.75	-1928.14	  400.95
    110.1700	  721.00	  779.21	-2002.60	  401.02
    110.2700	  736.00	  772.96	-1981.35	  401.09
    110.3700	  754.00	  765.07	-1955.46	  401.16
    110.4700	  780.00	  755.75	-1920.14	  401.24
    110.5700	  741.00	  745.30	-1948.69	  401.31
    110.6700	  694.00	  734.06	-1984.45	  401.39
    110.7700	  735.00	  722.36	-1931.75	  401.47
    110.8700	  674.00	  710.53	-1980.92	  401.55
    110.9700	  678.00	  698.86	-1965.25	  401.63
    111.0700	  720.00	  687.60	-1911.98	  401.71
    111.1700	  698.00	  676.95	-1923.34	  401.80
    111.2700	  661.00	  667.10	-1950.49	  401.89
    111.3700	  657.00	  658.17	-1945.56	  401.98
    111.4700	  636.00	  650.24	-1958.63	  402.07
    111.5700	  606.00	  643.36	-1981.75	  402.16
    111.6700	  667.00	  637.54	-1914.93	  402.26
    111.7700	  591.00	  632.77	-1986.16	  402.35
    111.8700	  607.00	  629.00	-1966.39	  402.45
    111.9700	  605.00	  626.17	-1965.56	  402.55
    112.0700	  608.00	  624.19	-1960.58	  402.66
    112.1700	  566.00	  622.98	-2001.36	  402.76
    112.2700	  630.00	  622.43	-1936.82	  402.87
    112.3700	  633.00	  622.46	-1933.85	  402.97
    112.4700	  609.00	  622.97	-1958.36	  403.08
    112.5700	  599.00	  623.87	-1969.26	  403.20
    112.6700	  609.00	  625.08	-1960.47	  403.31
    112.7700	  594.00	  626.52	-1976.91	  403.43
    112.8700	  604.00	  628.13	-1968.52	  403.54
    112.9700	  605.00	  629.86	-1969.25	  403.66
    113.0700	  616.00	  631.69	-1960.08	  403.78
    113.1700	  588.00	  633.61	-1990.00	  403.91
    113.2700	  612.00	  635.61	-1968.00	  404.03
    113.3700	  577.00	  637.73	-2005.11	  404.16
    113.4700	  598.00	  639.99	-1986.37	  404.29
    113.5700	  621.00	  642.44	-1965.83	  404.42
    113.6700	  639.00	  645.15	-1950.53	  404.55
    113.7700	  589.00	  648.17	-2003.56	  404.69
    113.8700	  587.00	  651.60	-2008.99	  404.82
    113.9700	  660.00	  655.55	-1939.94	  404.96
    114.0700	  641.00	  660.15	-1963.54	  405.10
    114.1700	  654.00	  665.56	-1955.95	  405.25
    114.2700	  711.00	  672.00	-1905.39	  405.39
    114.3700	  640.00	  679.75	-1984.14	  405.54
    114.4700	  675.00	  689.16	-1958.54	  405.68
    114.5700	  701.00	  700.68	-1944.06	  405.83
    114.6700	  749.00	  714.88	-1910.27	  405.99
    114.7700	  803.00	  732.51	-1873.89	  406.14
    114.8700	  747.00	  754.45	-1951.83	  406.30
    114.9700	  829.00	  781.81	-1897.20	  406.46
    115.0700	  905.00	  815.93	-1855.31	  406.62
    115.1700	  945.00	  858.37	-1857.75	  406.78
    115.2700	  983.00	  910.97	-1872.36	  406.94
    115.3700	 1064.00	  975.85	-1856.23	  407.11
    115.4700	 1173.00	 1055.32	-1826.71	  407.28
    115.5700	 1323.00	 1151.93	-1773.32	  407.45
    115.6700	 1374.00	 1268.35	-1838.73	  407.62
    115.7700	 1595.00	 1407.32	-1756.71	  407.79
    115.8700	 1685.00	 1571.57	-1830.96	  407.97
    115.9700	 1925.00	 1763.56	-1782.95	  408.15
    116.0700	 2278.00	 1985.44	-1651.83	  408.33
    116.1700	 2436.00	 2238.75	-1747.14	  408.51
    116.2700	 2727.00	 2524.41	-1741.79	  408.69
    116.3700	 3093.00	 2842.41	-1693.80	  408.88
    116.4700	 3417.00	 3191.60	-1718.99	  409.07
    116.5700	 3813.00	 3569.61	-1701.00	  409.26
    116.6700	 4098.00	 3972.66	-1819.05	  409.45
    116.7700	 4308.00	 4395.67	-2032.06	  409.64
    116.8700	 4825.00	 4832.21	-1951.60	  409.84
    116.9700	 5206.00	 5274.25	-2012.64	  410.04
    117.0700	 5661.00	 5712.58	-1995.97	  410.24
    117.1700	 6050.00	 6136.80	-2031.19	  410.44
    117.2700	 6313.00	 6535.75	-2167.14	  410.64
    117.3700	 6669.00	 6897.74	-2173.13	  410.85
    117.4700	 7030.00	 7210.90	-2125.29	  411.06
    117.5700	 7184.00	 7464.00	-2224.39	  411.27
    117.6700	 7455.00	 7647.26	-2136.64	  411.48
    117.7700	 7514.00	 7753.22	-2183.61	  411.69
    117.8700	 7464.00	 7777.55	-2257.94	  411.91
    117.9700	 7508.00	 7719.52	-2155.91	  412.13
    118.0700	 7410.00	 7582.17	-2116.56	  412.35
    118.1700	 7177.00	 7371.90	-2139.29	  412.57
    118.2700	 6849.00	 7097.68	-2193.07	  412.80
    118.3700	 6480.00	 6770.14	-2234.53	  413.02
    118.4700	 6131.00	 6400.86	-2214.24	  413.25
    118.5700	 5882.00	 6001.50	-2063.89	  413.48
    118.6700	 5609.00	 5583.44	-1918.83	  413.71
    118.7700	 5171.00	 5157.08	-1930.46	  413.95
    118.8700	 4822.00	 4731.77	-1854.16	  414.19
    118.9700	 4499.00	 4315.75	-1761.14	  414.43
    119.0700	 4136.00	 3915.85	-1724.24	  414.67
    119.1700	 3832.00	 3537.51	-1649.90	  414.91
    119.2700	 3360.00	 3184.68	-1769.06	  415.15
    119.3700	 3163.00	 2859.97	-1641.36	  415.40
    119.4700	 2839.00	 2564.92	-1670.31	  415.65
    119.5700	 2503.00	 2299.92	-1741.31	  415.90
    119.6700	 2288.00	 2064.53	-1720.92	  416.16
    119.7700	 2059.00	 1857.52	-1742.90	  416.41
    119.8700	 1892.00	 1677.12	-1729.51	  416.67
    119.9700	 1725.00	 1521.28	-1740.66	  416.93
    120.0700	 1569.00	 1387.66	-1763.05	  417.19
    120.1700	 1444.00	 1273.87	-1774.25	  417.45
    120.2700	 1317.00	 1177.46	-1804.85	  417.72
    120.3700	 1234.00	 1096.12	-1806.51	  417.99
    120.4700	 1101.00	 1027.71	-1871.10	  418.26
    120.5700	 1061.00	  970.28	-1853.67	  418.53
    120.6700	 1064.00	  922.09	-1802.47	  418.80
    120.7700	  962.00	  881.63	-1864.02	  419.08
    120.8700	  881.00	  847.63	-1911.02	  419.36
    120.9700	  870.00	  819.02	-1893.40	  419.64
    121.0700	  823.00	  794.90	-1916.28	  419.92
    121.1700	  831.00	  774.54	-1887.93	  420.20
    121.2700	  754.00	  757.38	-1947.76	  420.49
    121.3700	  761.00	  742.91	-1926.30	  420.78
    121.4700	  733.00	  730.78	-1942.17	  421.07
    121.5700	  728.00	  720.68	-1937.06	  421.36
    121.6700	  718.00	  712.36	-1938.75	  421.66
    121.7700	  715.00	  705.64	-1935.03	  421.95
    121.8700	  653.00	  700.37	-1991.76	  422.25
    121.9700	  638.00	  696.41	-2002.80	  422.55
    122.0700	  641.00	  693.67	-1997.06	  422.85
    122.1700	  666.00	  692.07	-1970.46	  423.16
    122.2700	  632.00	  691.53	-2003.92	  423.47
    122.3700	  689.00	  691.99	-1947.38	  423.78
    122.4700	  645.00	  693.40	-1992.78	  424.09
    122.5700	  666.00	  695.69	-1974.08	  424.40
    122.6700	  667.00	  698.82	-1976.21	  424.72
    122.7700	  670.00	  702.72	-1977.11	  425.03
    122.8700	  691.00	  707.34	-1960.73	  425.35
    122.9700	  690.00	  712.60	-1966.98	  425.67
    123.0700	  720.00	  718.42	-1942.80	  426.00
    123.1700	  695.00	  724.71	-1974.10	  426.32
    123.2700	  709.00	  731.39	-1966.78	  426.65
    123.3700	  664.00	  738.35	-2018.73	  426.98
    123.4700	  678.00	  745.47	-2011.86	  427.31
    123.5700	  730.00	  752.64	-1967.03	  427.65
    123.6700	  736.00	  759.74	-1968.13	  427.98
    123.7700	  691.00	  766.64	-2020.03	  428.32
    123.8700	  751.00	  773.22	-1966.61	  428.66
    123.9700	  759.00	  779.36	-1964.75	  429.00
    124.0700	  735.00	  784.98	-1994.37	  429.35
    124.1700	  730.00	  790.00	-2004.39	  429.69
    124.2700	  807.00	  794.38	-1931.76	  430.04
    124.3700	  807.00	  798.06	-1935.45	  430.39
    124.4700	  742.00	  801.13	-2003.51	  430.74
    124.5700	  845.00	  803.58	-1902.97	  431.10
    124.6700	  802.00	  805.48	-1947.87	  431.45
    124.7700	  813.00	  806.89	-1938.28	  431.81
    124.8700	  756.00	  807.88	-1996.26	  432.17
    124.9700	  806.00	  565.75	-1704.14	  432.54
    125.0700	  790.00	  566.11	-1944.39	  432.90
    125.1700	  724.00	  566.48	-1944.39	  433.27
    125.2700	  755.00	  566.85	-1944.39	  433.63
    125.3700	  767.00	  567.22	-1944.39	  434.01
    125.4700	  712.00	  567.59	-1944.39	  434.38
    125.5700	  739.00	  567.96	-1944.39	  434.75
    125.6700	  753.00	  568.34	-1944.39	  435.13
    125.7700	  786.00	  568.72	-1944.39	  435.51
    125.8700	  764.00	  569.10	-1944.39	  435.89
    125.9700	  723.00	  569.48	-1944.39	  436.27
    126.0700	  749.00	  569.87	-1944.39	  436.66
    126.1700	  734.00	  570.25	-1944.39	  437.04
    126.2700	  755.00	  570.64	-1944.39	  437.43
    126.3700	  777.00	  571.03	-1944.39	  437.82
    126.4700	  705.00	  571.43	-1944.39	  438.21
    126.5700	  784.00	  571.82	-1944.39	  438.61
    126.6700	  761.00	  572.22	-1944.39	  439.01
    126.7700	  713.00	  572.62	-1944.39	  439.40
    126.8700	  685.00	  573.02	-1944.39	  439.81
    126.9700	  685.00	  573.42	-1944.39	  440.21
    127.0700	  666.00	  573.82	-1944.39	  440.61
    127.1700	  674.00	  574.23	-1944.39	  441.02
    127.2700	  690.00	  574.64	-1944.39	  441.43
    127.3700	  604.00	  575.05	-1944.39	  441.84
    127.4700	  662.00	  575.46	-1944.39	  442.25
    127.5700	  602.00	  575.88	-1944.39	  442.66
    127.6700	  651.00	  576.29	-1944.39	  443.08
    127.7700	  627.00	  576.71	-1944.39	  443.50
    127.8700	  635.00	  577.13	-1944.39	  443.92
    127.9700	  608.00	  577.55	-1944.39	  444.34
    128.0700	  590.00	  577.98	-1944.39	  444.77
    128.1700	  644.00	  578.40	-1944.39	  445.19
    128.2700	  631.00	  578.83	-1944.39	  445.62
    128.3700	  708.00	  579.26	-1944.39	  446.05
    128.4700	  703.00	  579.69	-1944.39	  446.48
    128.5700	    0.00	  580.13	-1944.39	  446.91
    128.6700	    0.00	  580.56	-1944.39	  447.35
     12.4245	        	        	        	        	       0	(  0  0  2)	  0  1
     12.4245	        	        	        	        	    -486	(  0  0  2)	  0  1
     25.0921	        	        	        	        	       0	(  0  0  4)	  0  1
     25.0921	        	        	        	        	    -486	(  0  0  4)	  0  1
     28.5459	        	        	        	        	       0	(  1  0  0)	  0  1
     28.5459	        	        	        	        	    -486	(  1  0  0)	  0  1
     29.2482	        	        	        	        	       0	(  1  0  1)	  0  1
     29.2482	        	        	        	        	    -486	(  1  0  1)	  0  1
     31.2691	        	        	        	        	       0	(  1  0  2)	  0  1
     31.2691	        	        	        	        	    -486	(  1  0  2)	  0  1
     34.4004	        	        	        	        	       0	(  1  0  3)	  0  1
     34.4004	        	        	        	        	    -486	(  1  0  3)	  0  1
     38.0822	        	        	        	        	       0	(  0  0  6)	  0  1
     38.0822	        	        	        	        	    -486	(  0  0  6)	  0  1
     38.4071	        	        	        	        	       0	(  1  0  4)	  0  1
     38.4071	        	        	        	        	    -486	(  1  0  4)	  0  1
     43.0924	        	        	        	        	       0	(  1  0  5)	  0  1
     43.0924	        	        	        	        	    -486	(  1  0  5)	  0  1
     48.3169	        	        	        	        	       0	(  1  0  6)	  0  1
     48.3169	        	        	        	        	    -486	(  1  0  6)	  0  1
     50.6351	        	        	        	        	       0	(  1  1  0)	  0  1
     50.6351	        	        	        	        	    -486	(  1  1  0)	  0  1
     51.6062	        	        	        	        	       0	(  0  0  8)	  0  1
     51.6062	        	        	        	        	    -486	(  0  0  8)	  0  1
     52.3724	        	        	        	        	       0	(  1  1  2)	  0  1
     52.3724	        	        	        	        	    -486	(  1  1  2)	  0  1
     53.9930	        	        	        	        	       0	(  1  0  7)	  0  1
     53.9930	        	        	        	        	    -486	(  1  0  7)	  0  1
     57.3625	        	        	        	        	       0	(  1  1  4)	  0  1
     57.3625	        	        	        	        	    -486	(  1  1  4)	  0  1
     59.1981	        	        	        	        	       0	(  2  0  0)	  0  1
     59.1981	        	        	        	        	    -486	(  2  0  0)	  0  1
     59.5932	        	        	        	        	       0	(  2  0  1)	  0  1
     59.5932	        	        	        	        	    -486	(  2  0  1)	  0  1
     60.0746	        	        	        	        	       0	(  1  0  8)	  0  1
     60.0746	        	        	        	        	    -486	(  1  0  8)	  0  1
     60.7690	        	        	        	        	       0	(  2  0  2)	  0  1
     60.7690	        	        	        	        	    -486	(  2  0  2)	  0  1
     62.6996	        	        	        	        	       0	(  2  0  3)	  0  1
     62.6996	        	        	        	        	    -486	(  2  0  3)	  0  1
     65.1263	        	        	        	        	       0	(  1  1  6)	  0  1
     65.1263	        	        	        	        	    -486	(  1  1  6)	  0  1
     65.3480	        	        	        	        	       0	(  2  0  4)	  0  1
     65.3480	        	        	        	        	    -486	(  2  0  4)	  0  1
     65.9573	        	        	        	        	       0	(  0  0 10)	  0  1
     65.9573	        	        	        	        	    -486	(  0  0 10)	  0  1
     66.5489	        	        	        	        	       0	(  1  0  9)	  0  1
     66.5489	        	        	        	        	    -486	(  1  0  9)	  0  1
     68.6737	        	        	        	        	       0	(  2  0  5)	  0  1
     68.6737	        	        	        	        	    -486	(  2  0  5)	  0  1
     72.6402	        	        	        	        	       0	(  2  0  6)	  0  1
     72.6402	        	        	        	        	    -486	(  2  0  6)	  0  1
     73.4312	        	        	        	        	       0	(  1  0 10)	  0  1
     73.4312	        	        	        	        	    -486	(  1  0 10)	  0  1
     75.2628	        	        	        	        	       0	(  1  1  8)	  0  1
     75.2628	        	        	        	        	    -486	(  1  1  8)	  0  1
     77.2216	        	        	        	        	       0	(  2  0  7)	  0  1
     77.2216	        	        	        	        	    -486	(  2  0  7)	  0  1
     80.7661	        	        	        	        	       0	(  1  0 11)	  0  1
     80.7661	        	        	        	        	    -486	(  1  0 11)	  0  1
     81.5953	        	        	        	        	       0	(  0  0 12)	  0  1
     81.5953	        	        	        	        	    -486	(  0  0 12)	  0  1
     81.6447	        	        	        	        	       0	(  2  1  0)	  0  1
     81.6447	        	        	        	        	    -486	(  2  1  0)	  0  1
     81.9885	        	        	        	        	       0	(  2  1  1)	  0  1
     81.9885	        	        	        	        	    -486	(  2  1  1)	  0  1
     82.4089	        	        	        	        	       0	(  2  0  8)	  0  1
     82.4089	        	        	        	        	    -486	(  2  0  8)	  0  1
     83.0182	        	        	        	        	       0	(  2  1  2)	  0  1
     83.0182	        	        	        	        	    -486	(  2  1  2)	  0  1
     84.7295	        	        	        	        	       0	(  2  1  3)	  0  1
     84.7295	        	        	        	        	    -486	(  2  1  3)	  0  1
     87.1179	        	        	        	        	       0	(  2  1  4)	  0  1
     87.1179	        	        	        	        	    -486	(  2  1  4)	  0  1
     87.6739	        	        	        	        	       0	(  1  1 10)	  0  1
     87.6739	        	        	        	        	    -486	(  1  1 10)	  0  1
     88.2161	        	        	        	        	       0	(  2  0  9)	  0  1
     88.2161	        	        	        	        	    -486	(  2  0  9)	  0  1
     88.6328	        	        	        	        	       0	(  1  0 12)	  0  1
     88.6328	        	        	        	        	    -486	(  1  0 12)	  0  1
     90.1822	        	        	        	        	       0	(  2  1  5)	  0  1
     90.1822	        	        	        	        	    -486	(  2  1  5)	  0  1
     93.9293	        	        	        	        	       0	(  2  1  6)	  0  1
     93.9293	        	        	        	        	    -486	(  2  1  6)	  0  1
     94.6886	        	        	        	        	       0	(  2  0 10)	  0  1
     94.6886	        	        	        	        	    -486	(  2  0 10)	  0  1
     95.7003	        	        	        	        	       0	(  3  0  0)	  0  1
     95.7003	        	        	        	        	    -486	(  3  0  0)	  0  1
     96.0425	        	        	        	        	       0	(  3  0  1)	  0  1
     96.0425	        	        	        	        	    -486	(  3  0  1)	  0  1
     97.0704	        	        	        	        	       0	(  3  0  2)	  0  1
     97.0704	        	        	        	        	    -486	(  3  0  2)	  0  1
     97.1611	        	        	        	        	       0	(  1  0 13)	  0  1
     97.1611	        	        	        	        	    -486	(  1  0 13)	  0  1
     98.3815	        	        	        	        	       0	(  2  1  7)	  0  1
     98.3815	        	        	        	        	    -486	(  2  1  7)	  0  1
     98.7891	        	        	        	        	       0	(  3  0  3)	  0  1
     98.7891	        	        	        	        	    -486	(  3  0  3)	  0  1
     99.3656	        	        	        	        	       0	(  0  0 14)	  0  1
     99.3656	        	        	        	        	    -486	(  0  0 14)	  0  1
    101.2092	        	        	        	        	       0	(  3  0  4)	  0  1
    101.2092	        	        	        	        	    -486	(  3  0  4)	  0  1
    101.9181	        	        	        	        	       0	(  2  0 11)	  0  1
    101.9181	        	        	        	        	    -486	(  2  0 11)	  0  1
    102.7574	        	        	        	        	       0	(  1  1 12)	  0  1
    102.7574	        	        	        	        	    -486	(  1  1 12)	  0  1
    103.5854	        	        	        	        	       0	(  2  1  8)	  0  1
    103.5854	        	        	        	        	    -486	(  2  1  8)	  0  1
    104.3517	        	        	        	        	       0	(  3  0  5)	  0  1
    104.3517	        	        	        	        	    -486	(  3  0  5)	  0  1
    106.5648	        	        	        	        	       0	(  1  0 14)	  0  1
    106.5648	        	        	        	        	    -486	(  1  0 14)	  0  1
    108.2550	        	        	        	        	       0	(  3  0  6)	  0  1
    108.2550	        	        	        	        	    -486	(  3  0  6)	  0  1
    109.6289	        	        	        	        	       0	(  2  1  9)	  0  1
    109.6289	        	        	        	        	    -486	(  2  1  9)	  0  1
    110.0721	        	        	        	        	       0	(  2  0 12)	  0  1
    110.0721	        	        	        	        	    -486	(  2  0 12)	  0  1
    112.9866	        	        	        	        	       0	(  3  0  7)	  0  1
    112.9866	        	        	        	        	    -486	(  3  0  7)	  0  1
    116.6711	        	        	        	        	       0	(  2  1 10)	  0  1
    116.6711	        	        	        	        	    -486	(  2  1 10)	  0  1
    117.2245	        	        	        	        	       0	(  1  0 15)	  0  1
    117.2245	        	        	        	        	    -486	(  1  0 15)	  0  1
    117.8051	        	        	        	        	       0	(  2  2  0)	  0  1
    117.8051	        	        	        	        	    -486	(  2  2  0)	  0  1
    118.6650	        	        	        	        	       0	(  3  0  8)	  0  1
    118.6650	        	        	        	        	    -486	(  3  0  8)	  0  1
    119.3568	        	        	        	        	       0	(  2  2  2)	  0  1
    119.3568	        	        	        	        	    -486	(  2  2  2)	  0  1
    119.4601	        	        	        	        	       0	(  2  0 13)	  0  1
    119.4601	        	        	        	        	    -486	(  2  0 13)	  0  1
    121.2893	        	        	        	        	       0	(  0  0 16)	  0  1
    121.2893	        	        	        	        	    -486	(  0  0 16)	  0  1
    122.0000	        	        	        	        	       0	(  1  1 14)	  0  1
    122.0000	        	        	        	        	    -486	(  1  1 14)	  0  1
    124.1665	        	        	        	        	       0	(  2  2  4)	  0  1
    124.1665	        	        	        	        	    -486	(  2  2  4)	  0  1
    125.0109	        	        	        	        	       0	(  2  1 11)	  0  1
    125.0109	        	        	        	        	    -486	(  2  1 11)	  0  1
    125.5050	        	        	        	        	       0	(  3  0  9)	  0  1
    125.5050	        	        	        	        	    -486	(  3  0  9)	  0  1
    126.0796	        	        	        	        	       0	(  3  1  0)	  0  1
    126.0796	        	        	        	        	    -486	(  3  1  0)	  0  1
    126.5023	        	        	        	        	       0	(  3  1  1)	  0  1
    126.5023	        	        	        	        	    -486	(  3  1  1)	  0  1
    127.7848	        	        	        	        	       0	(  3  1  2)	  0  1
    127.7848	        	        	        	        	    -486	(  3  1  2)	  0  1
    129.9277	        	        	        	        	       0	(  1  0 16)	  0  1
    129.9277	        	        	        	        	    -486	(  1  0 16)	  0  1
    129.9738	        	        	        	        	       0	(  3  1  3)	  0  1
    129.9738	        	        	        	        	    -486	(  3  1  3)	  0  1
    130.7216	        	        	        	        	       0	(  2  0 14)	  0  1
    130.7216	        	        	        	        	    -486	(  2  0 14)	  0  1
    132.8871	        	        	        	        	       0	(  2  2  6)	  0  1
    132.8871	        	        	        	        	    -486	(  2  2  6)	  0  1
    133.1631	        	        	        	        	       0	(  3  1  4)	  0  1
    133.1631	        	        	        	        	    -486	(  3  1  4)	  0  1
    133.9306	        	        	        	        	       0	(  3  0 10)	  0  1
    133.9306	        	        	        	        	    -486	(  3  0 10)	  0  1
    135.2790	        	        	        	        	       0	(  2  1 12)	  0  1
    135.2790	        	        	        	        	    -486	(  2  1 12)	  0  1
    137.5295	        	        	        	        	       0	(  3  1  5)	  0  1
    137.5295	        	        	        	        	    -486	(  3  1  5)	  0  1
    143.4266	        	        	        	        	       0	(  3  1  6)	  0  1
    143.4266	        	        	        	        	    -486	(  3  1  6)	  0  1
    144.9613	        	        	        	        	       0	(  3  0 11)	  0  1
    144.9613	        	        	        	        	    -486	(  3  0 11)	  0  1
    145.5841	        	        	        	        	       0	(  2  0 15)	  0  1
    145.5841	        	        	        	        	    -486	(  2  0 15)	  0  1
    146.9505	        	        	        	        	       0	(  1  0 17)	  0  1
    146.9505	        	        	        	        	    -486	(  1  0 17)	  0  1
    147.9086	        	        	        	        	       0	(  2  2  8)	  0  1
    147.9086	        	        	        	        	    -486	(  2  2  8)	  0  1
    149.2440	        	        	        	        	       0	(  2  1 13)	  0  1
    149.2440	        	        	        	        	    -486	(  2  1 13)	  0  1
    151.7040	        	        	        	        	       0	(  3  1  7)	  0  1
    151.7040	        	        	        	        	    -486	(  3  1  7)	  0  1
    152.4921	        	        	        	        	       0	(  1  1 16)	  0  1
    152.4921	        	        	        	        	    -486	(  1  1 16)	  0  1
    157.5249	        	        	        	        	       0	(  0  0 18)	  0  1
    157.5249	        	        	        	        	    -486	(  0  0 18)	  0  1
    162.9079	        	        	        	        	       0	(  3  0 12)	  0  1
    162.9079	        	        	        	        	    -486	(  3  0 12)	  0  1
    163.0761	        	        	        	        	       0	(  4  0  0)	  0  1
    163.0761	        	        	        	        	    -486	(  4  0  0)	  0  1
    164.2943	        	        	        	        	       0	(  4  0  1)	  0  1
    164.2943	        	        	        	        	    -486	(  4  0  1)	  0  1
    165.9253	        	        	        	        	       0	(  3  1  8)	  0  1
    165.9253	        	        	        	        	    -486	(  3  1  8)	  0  1
    168.6969	        	        	        	        	       0	(  4  0  2)	  0  1
    168.6969	        	        	        	        	    -486	(  4  0  2)	  0  1
