MSG Master    CELL:    5.87955   5.87955  23.09595   90.0000   90.0000  120.0000   SPGR: P 63/m m c             TEMP:    506.85
  2   1280     2.52000     0.00000    -0.08456     0.00000     0.00000    0
    96    96     0     0     2
       0.00000      10.00000
     125.00000     130.00000
 2Theta	Yobs	Ycal	Yobs-Ycal	Backg	Posr	(hkl)	K
      0.7700	    0.00	  897.25	-2110.25	  761.80
      0.8700	    0.00	  894.69	-2110.25	  759.25
      0.9700	   45.00	  892.15	-2110.25	  756.71
      1.0700	   45.00	  889.63	-2110.25	  754.18
      1.1700	   50.00	  887.12	-2110.25	  751.67
      1.2700	   55.00	  884.62	-2110.25	  749.18
      1.3700	   40.00	  882.14	-2110.25	  746.70
      1.4700	  104.00	  879.68	-2110.25	  744.23
      1.5700	  289.00	  877.23	-2110.25	  741.78
      1.6700	  459.00	  874.79	-2110.25	  739.35
      1.7700	  545.00	  872.37	-2110.25	  736.92
      1.8700	  718.00	  869.96	-2110.25	  734.52
      1.9700	  686.00	  867.57	-2110.25	  732.12
      2.0700	  748.00	  865.19	-2110.25	  729.75
      2.1700	  728.00	  862.83	-2110.25	  727.38
      2.2700	  814.00	  860.48	-2110.25	  725.03
      2.3700	  729.00	  858.14	-2110.25	  722.70
      2.4700	  716.00	  855.82	-2110.25	  720.38
      2.5700	  641.00	  853.51	-2110.25	  718.07
      2.6700	  699.00	  851.22	-2110.25	  715.78
      2.7700	  608.00	  848.94	-2110.25	  713.50
      2.8700	  626.00	  846.68	-2110.25	  711.23
      2.9700	  649.00	  844.42	-2110.25	  708.98
      3.0700	  615.00	  842.19	-2110.25	  706.74
      3.1700	  613.00	  839.96	-2110.25	  704.52
      3.2700	  773.00	  837.75	-2110.25	  702.31
      3.3700	  916.00	  835.56	-2110.25	  700.11
      3.4700	 1037.00	  833.38	-2110.25	  697.93
      3.5700	 1158.00	  831.21	-2110.25	  695.76
      3.6700	 1368.00	  829.05	-2110.25	  693.61
      3.7700	 1423.00	  826.91	-2110.25	  691.46
      3.8700	 1435.00	  824.78	-2110.25	  689.33
      3.9700	 1511.00	  822.66	-2110.25	  687.22
      4.0700	 1595.00	  820.56	-2110.25	  685.12
      4.1700	 1699.00	  818.47	-2110.25	  683.03
      4.2700	 1708.00	  816.40	-2110.25	  680.95
      4.3700	 1627.00	  814.33	-2110.25	  678.89
      4.4700	 1632.00	  812.29	-2110.25	  676.84
      4.5700	 1582.00	  810.25	-2110.25	  674.80
      4.6700	 1543.00	  808.23	-2110.25	  672.78
      4.7700	 1510.00	  806.21	-2110.25	  670.77
      4.8700	 1419.00	  804.22	-2110.25	  668.77
      4.9700	 1368.00	  802.23	-2110.25	  666.79
      5.0700	 1413.00	  800.26	-2110.25	  664.81
      5.1700	 1281.00	  798.30	-2110.25	  662.85
      5.2700	 1280.00	  796.35	-2110.25	  660.91
      5.3700	 1311.00	  794.42	-2110.25	  658.97
      5.4700	 1222.00	  792.50	-2110.25	  657.05
      5.5700	 1212.00	  790.59	-2110.25	  655.14
      5.6700	 1185.00	  788.69	-2110.25	  653.25
      5.7700	 1243.00	  786.81	-2110.25	  651.36
      5.8700	 1126.00	  784.93	-2110.25	  649.49
      5.9700	 1080.00	  783.07	-2110.25	  647.63
      6.0700	 1147.00	  781.23	-2110.25	  645.78
      6.1700	 1062.00	  779.39	-2110.25	  643.95
      6.2700	 1043.00	  777.57	-2110.25	  642.12
      6.3700	 1045.00	  775.76	-2110.25	  640.31
      6.4700	  970.00	  773.96	-2110.25	  638.51
      6.5700	 1009.00	  772.17	-2110.25	  636.72
      6.6700	  894.00	  770.39	-2110.25	  634.95
      6.7700	  984.00	  768.63	-2110.25	  633.18
      6.8700	  930.00	  766.88	-2110.25	  631.43
      6.9700	  958.00	  765.14	-2110.25	  629.69
      7.0700	  886.00	  763.41	-2110.25	  627.96
      7.1700	  920.00	  761.69	-2110.25	  626.25
      7.2700	  878.00	  759.99	-2110.25	  624.54
      7.3700	  845.00	  758.29	-2110.25	  622.85
      7.4700	  831.00	  756.61	-2110.25	  621.17
      7.5700	  880.00	  754.94	-2110.25	  619.50
      7.6700	  798.00	  753.28	-2110.25	  617.84
      7.7700	  797.00	  751.63	-2110.25	  616.19
      7.8700	  778.00	  750.00	-2110.25	  614.55
      7.9700	  820.00	  748.37	-2110.25	  612.93
      8.0700	  851.00	  746.76	-2110.25	  611.31
      8.1700	  844.00	  745.16	-2110.25	  609.71
      8.2700	  806.00	  743.56	-2110.25	  608.12
      8.3700	  819.00	  741.98	-2110.25	  606.54
      8.4700	  747.00	  740.41	-2110.25	  604.97
      8.5700	  756.00	  738.85	-2110.25	  603.41
      8.6700	  820.00	  737.31	-2110.25	  601.86
      8.7700	  813.00	  735.77	-2110.25	  600.32
      8.8700	  803.00	  734.24	-2110.25	  598.80
      8.9700	  760.00	  732.73	-2110.25	  597.28
      9.0700	  754.00	  731.22	-2110.25	  595.78
      9.1700	  777.00	  729.73	-2110.25	  594.28
      9.2700	  804.00	  728.24	-2110.25	  592.80
      9.3700	  730.00	  726.77	-2110.25	  591.33
      9.4700	  720.00	  725.31	-2110.25	  589.86
      9.5700	  770.00	  723.86	-2110.25	  588.41
      9.6700	  765.00	  722.42	-2110.25	  586.97
      9.7700	  757.00	  720.98	-2110.25	  585.54
      9.8700	  695.00	  719.56	-2110.25	  584.12
      9.9700	  731.00	  718.15	-2110.25	  582.71
     10.0700	  763.00	  718.95	-2066.20	  581.31
     10.1700	  680.00	  717.79	-2148.04	  579.92
     10.2700	  712.00	  716.69	-2114.94	  578.54
     10.3700	  715.00	  715.67	-2110.92	  577.17
     10.4700	  703.00	  714.74	-2121.99	  575.81
     10.5700	  721.00	  713.94	-2103.19	  574.46
     10.6700	  732.00	  713.34	-2091.59	  573.12
     10.7700	  713.00	  713.02	-2110.27	  571.79
     10.8700	  737.00	  713.06	-2086.31	  570.47
     10.9700	  752.00	  713.57	-2071.82	  569.16
     11.0700	  713.00	  714.59	-2111.84	  567.86
     11.1700	  725.00	  716.15	-2101.40	  566.57
     11.2700	  744.00	  718.27	-2084.52	  565.29
     11.3700	  691.00	  720.99	-2140.24	  564.01
     11.4700	  735.00	  724.39	-2099.65	  562.75
     11.5700	  732.00	  728.64	-2106.89	  561.50
     11.6700	  772.00	  733.95	-2072.20	  560.26
     11.7700	  757.00	  740.60	-2093.85	  559.02
     11.8700	  751.00	  748.86	-2108.11	  557.80
     11.9700	  773.00	  758.79	-2096.04	  556.59
     12.0700	  830.00	  769.86	-2050.11	  555.38
     12.1700	  841.00	  780.43	-2049.68	  554.18
     12.2700	  859.00	  787.23	-2038.48	  553.00
     12.3700	  828.00	  785.56	-2067.81	  551.82
     12.4700	  820.00	  772.68	-2062.93	  550.65
     12.5700	  758.00	  752.63	-2104.88	  549.49
     12.6700	  702.00	  732.61	-2140.86	  548.34
     12.7700	  688.00	  716.57	-2138.82	  547.20
     12.8700	  679.00	  705.02	-2136.27	  546.07
     12.9700	  677.00	  697.12	-2130.37	  544.94
     13.0700	  666.00	  691.72	-2135.98	  543.83
     13.1700	  654.00	  687.88	-2144.13	  542.72
     13.2700	  618.00	  684.94	-2177.19	  541.63
     13.3700	  674.00	  682.54	-2118.79	  540.54
     13.4700	  656.00	  680.47	-2134.72	  539.46
     13.5700	  612.00	  678.63	-2176.88	  538.39
     13.6700	  632.00	  676.95	-2155.20	  537.33
     13.7700	  688.00	  675.39	-2097.64	  536.27
     13.8700	  650.00	  673.93	-2134.18	  535.23
     13.9700	  665.00	  672.55	-2117.80	  534.19
     14.0700	  685.00	  671.24	-2096.49	  533.16
     14.1700	  723.00	  669.97	-2057.22	  532.14
     14.2700	  684.00	  668.75	-2095.00	  531.13
     14.3700	  628.00	  667.56	-2149.81	  530.13
     14.4700	  639.00	  666.41	-2137.66	  529.13
     14.5700	  626.00	  665.29	-2149.54	  528.15
     14.6700	  640.00	  664.19	-2134.44	  527.17
     14.7700	  642.00	  663.11	-2131.36	  526.20
     14.8700	  715.00	  662.05	-2057.30	  525.24
     14.9700	  598.00	  661.01	-2173.26	  524.28
     15.0700	  648.00	  659.99	-2122.24	  523.34
     15.1700	  665.00	  658.99	-2104.24	  522.40
     15.2700	  630.00	  658.00	-2138.25	  521.47
     15.3700	  633.00	  657.02	-2134.27	  520.55
     15.4700	  651.00	  656.05	-2115.30	  519.63
     15.5700	  664.00	  655.10	-2101.35	  518.72
     15.6700	  673.00	  654.16	-2091.41	  517.83
     15.7700	  667.00	  653.23	-2096.48	  516.93
     15.8700	  648.00	  652.31	-2114.56	  516.05
     15.9700	  651.00	  651.41	-2110.66	  515.18
     16.0700	  660.00	  650.51	-2100.76	  514.31
     16.1700	  672.00	  649.62	-2087.87	  513.45
     16.2700	  660.00	  648.74	-2098.99	  512.59
     16.3700	  670.00	  647.87	-2088.12	  511.75
     16.4700	  652.00	  647.02	-2105.27	  510.91
     16.5700	  634.00	  646.17	-2122.42	  510.08
     16.6700	  662.00	  645.32	-2093.57	  509.26
     16.7700	  635.00	  644.49	-2119.74	  508.44
     16.8700	  643.00	  643.67	-2110.92	  507.63
     16.9700	  640.00	  642.85	-2113.10	  506.83
     17.0700	  598.00	  642.04	-2154.29	  506.04
     17.1700	  617.00	  641.24	-2134.50	  505.25
     17.2700	  653.00	  640.45	-2097.70	  504.47
     17.3700	  637.00	  639.67	-2112.92	  503.70
     17.4700	  658.00	  638.90	-2091.15	  502.93
     17.5700	  656.00	  638.13	-2092.38	  502.17
     17.6700	  632.00	  637.37	-2115.62	  501.42
     17.7700	  573.00	  636.62	-2173.87	  500.68
     17.8700	  635.00	  635.87	-2111.12	  499.94
     17.9700	  626.00	  635.13	-2119.38	  499.21
     18.0700	  630.00	  634.40	-2114.65	  498.49
     18.1700	  617.00	  633.68	-2126.93	  497.77
     18.2700	  675.00	  632.97	-2068.22	  497.06
     18.3700	  668.00	  632.26	-2074.51	  496.35
     18.4700	  640.00	  631.56	-2101.81	  495.66
     18.5700	  669.00	  630.86	-2072.11	  494.97
     18.6700	  616.00	  630.18	-2124.43	  494.28
     18.7700	  647.00	  629.50	-2092.75	  493.61
     18.8700	  624.00	  628.83	-2115.08	  492.94
     18.9700	  592.00	  628.16	-2146.41	  492.27
     19.0700	  623.00	  628.66	-2115.91	  491.61
     19.1700	  586.00	  630.02	-2154.27	  490.96
     19.2700	  623.00	  629.45	-2116.70	  490.32
     19.3700	  662.00	  628.88	-2077.13	  489.68
     19.4700	  613.00	  628.32	-2125.57	  489.05
     19.5700	  599.00	  627.77	-2139.02	  488.42
     19.6700	  623.00	  627.23	-2114.48	  487.80
     19.7700	  625.00	  626.70	-2111.95	  487.19
     19.8700	  653.00	  626.17	-2083.42	  486.58
     19.9700	  599.00	  625.66	-2136.91	  485.98
     20.0700	  645.00	  625.16	-2090.41	  485.39
     20.1700	  647.00	  624.72	-2087.97	  484.80
     20.2700	  650.00	  624.24	-2084.49	  484.21
     20.3700	  612.00	  623.76	-2122.01	  483.64
     20.4700	  636.00	  623.30	-2097.55	  483.07
     20.5700	  618.00	  622.85	-2115.10	  482.50
     20.6700	  636.00	  622.41	-2096.66	  481.94
     20.7700	  650.00	  621.98	-2082.23	  481.39
     20.8700	  599.00	  621.56	-2132.81	  480.84
     20.9700	  631.00	  621.16	-2100.41	  480.30
     21.0700	  603.00	  620.76	-2128.01	  479.76
     21.1700	  645.00	  620.38	-2085.63	  479.23
     21.2700	  688.00	  620.01	-2042.26	  478.71
     21.3700	  630.00	  619.65	-2099.90	  478.19
     21.4700	  651.00	  619.30	-2078.55	  477.68
     21.5700	  608.00	  618.97	-2121.22	  477.17
     21.6700	  629.00	  618.65	-2099.90	  476.67
     21.7700	  625.00	  618.35	-2103.60	  476.17
     21.8700	  614.00	  618.07	-2114.32	  475.68
     21.9700	  627.00	  617.80	-2101.05	  475.19
     22.0700	  651.00	  617.54	-2076.79	  474.71
     22.1700	  608.00	  617.31	-2119.56	  474.24
     22.2700	  621.00	  617.09	-2106.34	  473.77
     22.3700	  638.00	  617.11	-2089.36	  473.31
     22.4700	  658.00	  616.94	-2069.19	  472.85
     22.5700	  663.00	  616.80	-2064.05	  472.39
     22.6700	  629.00	  616.68	-2097.93	  471.94
     22.7700	  636.00	  616.58	-2090.83	  471.50
     22.8700	  631.00	  616.52	-2095.77	  471.06
     22.9700	  564.00	  616.49	-2162.74	  470.63
     23.0700	  599.00	  616.50	-2127.75	  470.20
     23.1700	  606.00	  616.55	-2120.80	  469.78
     23.2700	  607.00	  616.64	-2119.89	  469.36
     23.3700	  626.00	  616.79	-2101.04	  468.95
     23.4700	  650.00	  617.01	-2077.26	  468.54
     23.5700	  685.00	  617.30	-2042.55	  468.14
     23.6700	  639.00	  617.69	-2088.94	  467.74
     23.7700	  606.00	  618.20	-2122.45	  467.35
     23.8700	  588.00	  618.87	-2141.12	  466.96
     23.9700	  642.00	  619.77	-2088.02	  466.57
     24.0700	  630.00	  621.01	-2101.26	  466.19
     24.1700	  650.00	  622.77	-2083.02	  465.82
     24.2700	  605.00	  625.32	-2130.57	  465.45
     24.3700	  683.00	  629.04	-2056.29	  465.09
     24.4700	  696.00	  634.28	-2048.53	  464.73
     24.5700	  627.00	  641.46	-2124.71	  464.37
     24.6700	  674.00	  650.55	-2086.80	  464.02
     24.7700	  692.00	  661.01	-2079.26	  463.67
     24.8700	  717.00	  671.43	-2064.68	  463.33
     24.9700	  707.00	  679.25	-2082.50	  462.99
     25.0700	  766.00	  681.10	-2025.35	  462.66
     25.1700	  740.00	  675.40	-2045.65	  462.33
     25.2700	  687.00	  665.10	-2088.35	  462.01
     25.3700	  704.00	  654.82	-2061.07	  461.69
     25.4700	  706.00	  646.85	-2051.10	  461.37
     25.5700	  661.00	  641.74	-2090.99	  461.06
     25.6700	  643.00	  639.08	-2106.33	  460.75
     25.7700	  720.00	  638.24	-2028.49	  460.45
     25.8700	  626.00	  638.67	-2122.92	  460.15
     25.9700	  555.00	  640.00	-2195.25	  459.86
     26.0700	  639.00	  642.01	-2113.26	  459.57
     26.1700	  615.00	  644.63	-2139.88	  459.28
     26.2700	  631.00	  647.85	-2127.10	  459.00
     26.3700	  631.00	  651.72	-2130.97	  458.72
     26.4700	  643.00	  656.32	-2123.57	  458.45
     26.5700	  621.00	  661.76	-2151.01	  458.18
     26.6700	  653.00	  668.20	-2125.45	  457.91
     26.7700	  642.00	  675.86	-2144.11	  457.65
     26.8700	  667.00	  685.01	-2128.26	  457.39
     26.9700	  736.00	  696.03	-2070.28	  457.14
     27.0700	  661.00	  709.45	-2158.70	  456.89
     27.1700	  676.00	  725.98	-2160.23	  456.64
     27.2700	  686.00	  746.67	-2170.92	  456.40
     27.3700	  743.00	  773.20	-2140.45	  456.16
     27.4700	  709.00	  808.62	-2209.87	  455.92
     27.5700	  808.00	  859.47	-2161.72	  455.69
     27.6700	  816.00	  940.15	-2234.40	  455.46
     27.7700	  911.00	 1080.34	-2279.59	  455.24
     27.8700	 1083.00	 1333.79	-2361.04	  455.02
     27.9700	 1285.00	 1783.31	-2608.56	  454.80
     28.0700	 1963.00	 2529.00	-2676.25	  454.59
     28.1700	 3191.00	 3642.82	-2562.07	  454.38
     28.2700	 5239.00	 5077.05	-1948.30	  454.17
     28.3700	 7512.00	 6539.59	-1137.84	  453.97
     28.4700	 8441.00	 7446.66	-1115.91	  453.77
     28.5700	 7711.00	 7190.26	-1589.51	  453.58
     28.6700	 5860.00	 5927.72	-2177.97	  453.38
     28.7700	 4451.00	 4603.15	-2262.40	  453.19
     28.8700	 3482.00	 3863.17	-2491.42	  453.01
     28.9700	 3833.00	 3781.39	-2058.64	  452.83
     29.0700	 4275.00	 4070.07	-1905.32	  452.65
     29.1700	 4693.00	 4285.54	-1702.79	  452.47
     29.2700	 4269.00	 4034.14	-1875.39	  452.30
     29.3700	 3272.00	 3300.43	-2138.68	  452.13
     29.4700	 2273.00	 2449.38	-2286.63	  451.96
     29.5700	 1576.00	 1764.04	-2298.29	  451.80
     29.6700	 1223.00	 1315.57	-2202.82	  451.64
     29.7700	 1006.00	 1060.01	-2164.26	  451.48
     29.8700	  876.00	  923.29	-2157.54	  451.33
     29.9700	  869.00	  847.39	-2088.64	  451.18
     30.0700	  783.00	  800.20	-2127.45	  451.03
     30.1700	  776.00	  767.44	-2101.69	  450.89
     30.2700	  749.00	  743.31	-2104.56	  450.75
     30.3700	  763.00	  725.40	-2072.65	  450.61
     30.4700	  654.00	  712.81	-2169.06	  450.47
     30.5700	  746.00	  705.66	-2069.91	  450.34
     30.6700	  728.00	  704.93	-2087.18	  450.21
     30.7700	  740.00	  712.07	-2082.32	  450.08
     30.8700	  726.00	  727.88	-2112.13	  449.96
     30.9700	  746.00	  750.82	-2115.07	  449.84
     31.0700	  747.00	  775.39	-2138.64	  449.72
     31.1700	  823.00	  791.54	-2078.79	  449.61
     31.2700	  782.00	  787.39	-2115.64	  449.49
     31.3700	  789.00	  760.24	-2081.49	  449.38
     31.4700	  728.00	  722.76	-2105.01	  449.28
     31.5700	  666.00	  688.58	-2132.83	  449.17
     31.6700	  753.00	  663.23	-2020.48	  449.07
     31.7700	  645.00	  646.66	-2111.91	  448.97
     31.8700	  661.00	  636.55	-2085.80	  448.87
     31.9700	  665.00	  630.38	-2075.63	  448.78
     32.0700	  675.00	  626.35	-2061.60	  448.69
     32.1700	  604.00	  623.51	-2129.76	  448.60
     32.2700	  625.00	  621.38	-2106.63	  448.51
     32.3700	  639.00	  619.78	-2091.02	  448.43
     32.4700	  632.00	  618.59	-2096.84	  448.35
     32.5700	  621.00	  617.80	-2107.05	  448.27
     32.6700	  668.00	  617.37	-2059.62	  448.19
     32.7700	  637.00	  617.36	-2090.61	  448.12
     32.8700	  680.00	  617.73	-2047.98	  448.04
     32.9700	  668.00	  618.57	-2060.82	  447.97
     33.0700	  667.00	  619.98	-2063.23	  447.91
     33.1700	  669.00	  622.11	-2063.36	  447.84
     33.2700	  686.00	  625.25	-2049.50	  447.78
     33.3700	  631.00	  629.92	-2109.17	  447.72
     33.4700	  654.00	  637.15	-2093.40	  447.66
     33.5700	  701.00	  648.93	-2058.18	  447.60
     33.6700	  704.00	  668.80	-2075.05	  447.55
     33.7700	  687.00	  702.15	-2125.40	  447.50
     33.8700	  799.00	  755.68	-2066.93	  447.45
     33.9700	  841.00	  834.55	-2103.80	  447.40
     34.0700	  957.00	  937.23	-2090.48	  447.36
     34.1700	 1141.00	 1049.75	-2019.00	  447.31
     34.2700	 1240.00	 1142.67	-2012.92	  447.27
     34.3700	 1306.00	 1175.85	-1980.10	  447.23
     34.4700	 1226.00	 1125.00	-2009.25	  447.19
     34.5700	 1048.00	 1014.76	-2077.01	  447.16
     34.6700	  904.00	  894.23	-2100.48	  447.13
     34.7700	  795.00	  794.11	-2109.36	  447.10
     34.8700	  750.00	  723.03	-2083.28	  447.07
     34.9700	  679.00	  677.80	-2109.05	  447.04
     35.0700	  680.00	  650.91	-2081.16	  447.01
     35.1700	  635.00	  635.14	-2110.39	  446.99
     35.2700	  659.00	  625.45	-2076.70	  446.97
     35.3700	  614.00	  618.96	-2115.21	  446.95
     35.4700	  607.00	  614.25	-2117.50	  446.93
     35.5700	  607.00	  610.66	-2113.91	  446.91
     35.6700	  632.00	  607.82	-2086.07	  446.90
     35.7700	  613.00	  605.54	-2102.79	  446.89
     35.8700	  625.00	  603.70	-2088.95	  446.87
     35.9700	  608.00	  602.19	-2104.44	  446.86
     36.0700	  589.00	  600.96	-2122.21	  446.86
     36.1700	  614.00	  599.97	-2096.22	  446.85
     36.2700	  607.00	  599.17	-2102.42	  446.85
     36.3700	  615.00	  598.54	-2093.79	  446.84
     36.4700	  646.00	  598.12	-2062.37	  446.84
     36.5700	  593.00	  597.81	-2115.06	  446.84
     36.6700	  629.00	  597.64	-2078.89	  446.84
     36.7700	  618.00	  597.63	-2089.88	  446.85
     36.8700	  650.00	  597.79	-2058.04	  446.85
     36.9700	  586.00	  598.36	-2122.61	  446.86
     37.0700	  622.00	  598.98	-2087.23	  446.87
     37.1700	  587.00	  599.94	-2123.19	  446.88
     37.2700	  628.00	  601.89	-2084.14	  446.89
     37.3700	  604.00	  604.08	-2110.33	  446.90
     37.4700	  624.00	  607.46	-2093.71	  446.91
     37.5700	  642.00	  612.72	-2080.97	  446.93
     37.6700	  597.00	  621.01	-2134.26	  446.94
     37.7700	  637.00	  633.77	-2107.02	  446.96
     37.8700	  666.00	  652.47	-2096.72	  446.98
     37.9700	  672.00	  677.90	-2116.15	  447.00
     38.0700	  757.00	  707.13	-2060.38	  447.02
     38.1700	  739.00	  739.94	-2111.19	  447.05
     38.2700	  709.00	  766.98	-2168.23	  447.07
     38.3700	  788.00	  778.02	-2100.27	  447.10
     38.4700	  752.00	  765.93	-2124.18	  447.12
     38.5700	  728.00	  735.24	-2117.49	  447.15
     38.6700	  686.00	  698.59	-2122.84	  447.18
     38.7700	  651.00	  665.69	-2124.94	  447.21
     38.8700	  608.00	  640.45	-2142.70	  447.24
     38.9700	  605.00	  623.06	-2128.31	  447.27
     39.0700	  598.00	  611.97	-2124.22	  447.31
     39.1700	  571.00	  605.19	-2144.44	  447.34
     39.2700	  575.00	  601.03	-2136.28	  447.38
     39.3700	  612.00	  598.35	-2096.60	  447.42
     39.4700	  578.00	  596.49	-2128.74	  447.45
     39.5700	  611.00	  594.04	-2093.29	  447.49
     39.6700	  579.00	  593.01	-2124.26	  447.53
     39.7700	  601.00	  592.20	-2101.45	  447.57
     39.8700	  585.00	  591.56	-2116.81	  447.62
     39.9700	  603.00	  591.05	-2098.30	  447.66
     40.0700	  576.00	  590.64	-2124.89	  447.70
     40.1700	  606.00	  590.33	-2094.58	  447.75
     40.2700	  573.00	  590.08	-2127.33	  447.79
     40.3700	  587.00	  589.89	-2113.14	  447.84
     40.4700	  577.00	  589.76	-2123.01	  447.89
     40.5700	  598.00	  589.68	-2101.93	  447.94
     40.6700	  618.00	  589.64	-2081.89	  447.99
     40.7700	  636.00	  590.18	-2064.43	  448.04
     40.8700	  572.00	  590.23	-2128.48	  448.09
     40.9700	  581.00	  590.32	-2119.57	  448.14
     41.0700	  580.00	  590.45	-2120.70	  448.19
     41.1700	  601.00	  590.62	-2099.87	  448.24
     41.2700	  587.00	  590.91	-2114.16	  448.30
     41.3700	  607.00	  591.19	-2094.44	  448.35
     41.4700	  621.00	  591.54	-2080.79	  448.41
     41.5700	  615.00	  591.96	-2087.21	  448.46
     41.6700	  592.00	  592.49	-2110.74	  448.52
     41.7700	  592.00	  593.14	-2111.39	  448.58
     41.8700	  604.00	  593.96	-2100.21	  448.64
     41.9700	  613.00	  595.03	-2092.28	  448.70
     42.0700	  597.00	  596.51	-2109.76	  448.75
     42.1700	  616.00	  598.68	-2092.93	  448.82
     42.2700	  587.00	  602.02	-2125.27	  448.88
     42.3700	  570.00	  607.28	-2147.53	  448.94
     42.4700	  613.00	  615.37	-2112.61	  449.00
     42.5700	  623.00	  627.36	-2114.61	  449.06
     42.6700	  632.00	  643.77	-2122.02	  449.12
     42.7700	  627.00	  664.05	-2147.30	  449.19
     42.8700	  675.00	  685.76	-2121.01	  449.25
     42.9700	  644.00	  704.00	-2170.25	  449.32
     43.0700	  694.00	  712.28	-2128.53	  449.38
     43.1700	  665.00	  706.48	-2151.73	  449.45
     43.2700	  661.00	  689.18	-2138.43	  449.51
     43.3700	  675.00	  667.30	-2102.55	  449.58
     43.4700	  667.00	  646.58	-2089.83	  449.65
     43.5700	  583.00	  629.88	-2157.14	  449.71
     43.6700	  559.00	  617.59	-2168.84	  449.78
     43.7700	  651.00	  609.33	-2068.58	  449.85
     43.8700	  656.00	  604.09	-2058.34	  449.92
     43.9700	  594.00	  600.86	-2117.11	  449.99
     44.0700	  625.00	  599.05	-2084.30	  450.05
     44.1700	  586.00	  597.77	-2122.02	  450.12
     44.2700	  573.00	  596.90	-2134.15	  450.19
     44.3700	  593.00	  596.28	-2113.53	  450.26
     44.4700	  568.00	  595.84	-2138.09	  450.33
     44.5700	  605.00	  595.52	-2100.77	  450.40
     44.6700	  567.00	  595.30	-2138.55	  450.47
     44.7700	  571.00	  595.16	-2134.41	  450.55
     44.8700	  596.00	  595.10	-2109.35	  450.62
     44.9700	  602.00	  595.08	-2103.33	  450.69
     45.0700	  646.00	  595.36	-2059.61	  450.76
     45.1700	  587.00	  595.43	-2118.68	  450.83
     45.2700	  646.00	  595.54	-2059.79	  450.90
     45.3700	  592.00	  595.68	-2113.93	  450.98
     45.4700	  613.00	  595.85	-2093.10	  451.05
     45.5700	  656.00	  596.05	-2050.30	  451.12
     45.6700	  626.00	  596.29	-2080.54	  451.19
     45.7700	  590.00	  596.64	-2116.89	  451.27
     45.8700	  588.00	  596.94	-2119.19	  451.34
     45.9700	  635.00	  597.27	-2072.52	  451.41
     46.0700	  664.00	  597.63	-2043.88	  451.49
     46.1700	  554.00	  598.04	-2154.29	  451.56
     46.2700	  570.00	  598.48	-2138.73	  451.63
     46.3700	  592.00	  598.97	-2117.22	  451.71
     46.4700	  579.00	  599.51	-2130.76	  451.78
     46.5700	  598.00	  600.05	-2112.30	  451.85
     46.6700	  606.00	  600.72	-2104.97	  451.93
     46.7700	  586.00	  601.48	-2125.73	  452.00
     46.8700	  604.00	  602.35	-2108.60	  452.07
     46.9700	  627.00	  603.33	-2086.58	  452.15
     47.0700	  601.00	  604.48	-2113.73	  452.22
     47.1700	  560.00	  605.87	-2156.12	  452.29
     47.2700	  647.00	  607.63	-2070.88	  452.37
     47.3700	  578.00	  609.99	-2142.24	  452.44
     47.4700	  608.00	  613.32	-2115.57	  452.51
     47.5700	  571.00	  618.12	-2157.37	  452.59
     47.6700	  582.00	  625.03	-2153.28	  452.66
     47.7700	  597.00	  634.66	-2147.91	  452.73
     47.8700	  595.00	  647.35	-2162.60	  452.81
     47.9700	  639.00	  662.83	-2134.08	  452.88
     48.0700	  655.00	  679.79	-2135.04	  452.95
     48.1700	  635.00	  695.46	-2170.71	  453.02
     48.2700	  690.00	  705.78	-2126.03	  453.10
     48.3700	  720.00	  707.26	-2097.51	  453.17
     48.4700	  760.00	  699.87	-2050.12	  453.24
     48.5700	  647.00	  687.70	-2150.95	  453.31
     48.6700	  684.00	  674.19	-2100.44	  453.38
     48.7700	  652.00	  662.58	-2120.83	  453.46
     48.8700	  654.00	  654.19	-2110.44	  453.53
     48.9700	  603.00	  649.33	-2156.58	  453.60
     49.0700	  636.00	  647.75	-2122.00	  453.67
     49.1700	  640.00	  649.01	-2119.26	  453.74
     49.2700	  582.00	  652.73	-2180.98	  453.81
     49.3700	  627.00	  658.80	-2142.05	  453.88
     49.4700	  609.00	  667.62	-2168.87	  453.95
     49.5700	  645.00	  680.53	-2145.78	  454.02
     49.6700	  701.00	  700.94	-2110.19	  454.09
     49.7700	  743.00	  736.23	-2103.48	  454.16
     49.8700	  831.00	  800.54	-2079.79	  454.22
     49.9700	  916.00	  916.80	-2111.05	  454.29
     50.0700	 1157.00	 1114.62	-2067.87	  454.36
     50.1700	 1567.00	 1420.72	-1963.97	  454.43
     50.2700	 1949.00	 1840.48	-2001.73	  454.49
     50.3700	 2483.00	 2336.84	-1964.09	  454.56
     50.4700	 2853.00	 2815.66	-2072.91	  454.63
     50.5700	 3217.00	 3133.65	-2026.90	  454.69
     50.6700	 3063.00	 3158.90	-2206.15	  454.76
     50.7700	 2691.00	 2876.62	-2295.87	  454.83
     50.8700	 2376.00	 2409.56	-2143.81	  454.89
     50.9700	 1820.00	 1910.56	-2200.81	  454.95
     51.0700	 1429.00	 1482.45	-2163.70	  455.02
     51.1700	 1182.00	 1169.05	-2097.30	  455.08
     51.2700	  933.00	  968.55	-2145.80	  455.15
     51.3700	  848.00	  854.45	-2116.70	  455.21
     51.4700	  806.00	  794.86	-2099.11	  455.27
     51.5700	  808.00	  763.71	-2065.96	  455.33
     51.6700	  698.00	  744.26	-2156.51	  455.39
     51.7700	  726.00	  728.65	-2112.90	  455.45
     51.8700	  772.00	  714.72	-2052.97	  455.52
     51.9700	  763.00	  702.81	-2050.06	  455.58
     52.0700	  711.00	  693.45	-2092.70	  455.63
     52.1700	  717.00	  686.61	-2079.86	  455.69
     52.2700	  722.00	  681.69	-2069.94	  455.75
     52.3700	  690.00	  677.76	-2098.01	  455.81
     52.4700	  638.00	  674.21	-2146.46	  455.87
     52.5700	  677.00	  671.17	-2104.42	  455.92
     52.6700	  668.00	  669.32	-2111.57	  455.98
     52.7700	  730.00	  669.48	-2049.73	  456.04
     52.8700	  663.00	  672.56	-2119.81	  456.09
     52.9700	  713.00	  679.76	-2077.01	  456.15
     53.0700	  695.00	  692.83	-2108.08	  456.20
     53.1700	  745.00	  714.22	-2079.47	  456.25
     53.2700	  745.00	  746.98	-2112.23	  456.31
     53.3700	  776.00	  794.29	-2128.54	  456.36
     53.4700	  799.00	  858.45	-2169.70	  456.41
     53.5700	  937.00	  939.53	-2112.78	  456.46
     53.6700	 1082.00	 1033.79	-2062.04	  456.51
     53.7700	 1164.00	 1131.32	-2077.57	  456.56
     53.8700	 1256.00	 1215.08	-2069.33	  456.61
     53.9700	 1326.00	 1262.70	-2046.95	  456.66
     54.0700	 1247.00	 1257.33	-2120.58	  456.71
     54.1700	 1193.00	 1200.89	-2118.14	  456.76
     54.2700	 1134.00	 1112.70	-2088.95	  456.80
     54.3700	 1016.00	 1015.08	-2109.33	  456.85
     54.4700	  940.00	  923.72	-2093.97	  456.89
     54.5700	  830.00	  846.84	-2127.09	  456.94
     54.6700	  765.00	  787.19	-2132.44	  456.98
     54.7700	  688.00	  743.99	-2166.24	  457.03
     54.8700	  733.00	  714.54	-2091.79	  457.07
     54.9700	  674.00	  695.49	-2131.74	  457.11
     55.0700	  694.00	  683.72	-2099.97	  457.15
     55.1700	  683.00	  676.79	-2104.04	  457.19
     55.2700	  656.00	  673.05	-2127.30	  457.23
     55.3700	  647.00	  671.48	-2134.73	  457.27
     55.4700	  635.00	  671.52	-2146.77	  457.31
     55.5700	  653.00	  672.92	-2130.17	  457.35
     55.6700	  749.00	  675.59	-2036.84	  457.39
     55.7700	  677.00	  679.60	-2112.85	  457.42
     55.8700	  720.00	  685.14	-2075.39	  457.46
     55.9700	  637.00	  692.60	-2165.85	  457.49
     56.0700	  671.00	  702.77	-2142.02	  457.53
     56.1700	  722.00	  717.11	-2105.36	  457.56
     56.2700	  744.00	  738.39	-2104.64	  457.59
     56.3700	  786.00	  771.38	-2095.63	  457.63
     56.4700	  826.00	  823.68	-2107.93	  457.66
     56.5700	  907.00	  906.02	-2109.27	  457.69
     56.6700	 1030.00	 1031.33	-2111.58	  457.72
     56.7700	 1265.00	 1212.06	-2057.31	  457.75
     56.8700	 1525.00	 1455.36	-2040.61	  457.77
     56.9700	 1770.00	 1757.14	-2097.39	  457.80
     57.0700	 2093.00	 2095.66	-2112.91	  457.83
     57.1700	 2491.00	 2426.47	-2045.72	  457.85
     57.2700	 2669.00	 2681.11	-2122.36	  457.88
     57.3700	 2740.00	 2784.46	-2154.71	  457.90
     57.4700	 2642.00	 2698.77	-2167.02	  457.92
     57.5700	 2353.00	 2455.46	-2212.71	  457.95
     57.6700	 2083.00	 2129.23	-2156.48	  457.97
     57.7700	 1721.00	 1791.05	-2180.30	  457.99
     57.8700	 1458.00	 1487.67	-2139.92	  458.01
     57.9700	 1144.00	 1242.41	-2208.66	  458.03
     58.0700	  996.00	 1060.87	-2175.12	  458.05
     58.1700	  867.00	  937.04	-2180.29	  458.06
     58.2700	  838.00	  859.76	-2132.01	  458.08
     58.3700	  800.00	  817.77	-2128.02	  458.10
     58.4700	  820.00	  802.87	-2093.12	  458.11
     58.5700	  777.00	  810.69	-2143.94	  458.12
     58.6700	  761.00	  839.83	-2189.08	  458.14
     58.7700	  855.00	  890.27	-2145.52	  458.15
     58.8700	  967.00	  960.81	-2104.06	  458.16
     58.9700	 1030.00	 1047.29	-2127.54	  458.17
     59.0700	 1084.00	 1141.02	-2167.27	  458.18
     59.1700	 1220.00	 1229.24	-2119.49	  458.19
     59.2700	 1313.00	 1299.71	-2096.96	  458.20
     59.3700	 1298.00	 1346.56	-2158.81	  458.20
     59.4700	 1406.00	 1369.05	-2073.30	  458.21
     59.5700	 1321.00	 1365.87	-2155.12	  458.22
     59.6700	 1399.00	 1337.23	-2048.48	  458.22
     59.7700	 1281.00	 1291.47	-2120.72	  458.22
     59.8700	 1322.00	 1244.16	-2032.41	  458.23
     59.9700	 1260.00	 1209.86	-2060.11	  458.23
     60.0700	 1274.00	 1198.23	-2034.48	  458.23
     60.1700	 1262.00	 1215.04	-2063.29	  458.23
     60.2700	 1348.00	 1263.80	-2026.05	  458.23
     60.3700	 1382.00	 1344.15	-2072.40	  458.23
     60.4700	 1525.00	 1447.82	-2033.07	  458.22
     60.5700	 1576.00	 1555.94	-2090.19	  458.22
     60.6700	 1586.00	 1639.61	-2163.86	  458.21
     60.7700	 1644.00	 1667.02	-2133.27	  458.21
     60.8700	 1550.00	 1620.25	-2180.50	  458.20
     60.9700	 1425.00	 1508.57	-2193.82	  458.19
     61.0700	 1337.00	 1360.54	-2133.79	  458.19
     61.1700	 1173.00	 1205.83	-2143.08	  458.18
     61.2700	 1018.00	 1065.91	-2158.16	  458.17
     61.3700	  927.00	  952.89	-2136.14	  458.15
     61.4700	  826.00	  871.12	-2155.37	  458.14
     61.5700	  823.00	  819.86	-2107.11	  458.13
     61.6700	  821.00	  796.30	-2085.55	  458.12
     61.7700	  838.00	  798.30	-2070.55	  458.10
     61.8700	  781.00	  825.96	-2155.21	  458.08
     61.9700	  928.00	  881.77	-2064.02	  458.07
     62.0700	 1092.00	  969.22	-1987.47	  458.05
     62.1700	 1100.00	 1090.33	-2100.58	  458.03
     62.2700	 1318.00	 1242.65	-2034.90	  458.01
     62.3700	 1501.00	 1416.45	-2025.70	  457.99
     62.4700	 1621.00	 1592.54	-2081.79	  457.97
     62.5700	 1693.00	 1741.67	-2158.92	  457.95
     62.6700	 1845.00	 1828.78	-2094.03	  457.92
     62.7700	 1768.00	 1827.34	-2169.59	  457.90
     62.8700	 1672.00	 1737.40	-2175.65	  457.87
     62.9700	 1528.00	 1585.62	-2167.87	  457.85
     63.0700	 1414.00	 1407.22	-2103.47	  457.82
     63.1700	 1205.00	 1231.30	-2136.55	  457.79
     63.2700	 1095.00	 1076.65	-2091.90	  457.76
     63.3700	 1025.00	  952.48	-2037.73	  457.73
     63.4700	  874.00	  860.41	-2096.66	  457.70
     63.5700	  850.00	  797.02	-2057.27	  457.67
     63.6700	  770.00	  756.35	-2096.60	  457.64
     63.7700	  710.00	  732.34	-2132.59	  457.60
     63.8700	  735.00	  720.07	-2095.32	  457.57
     63.9700	  767.00	  716.35	-2059.60	  457.53
     64.0700	  745.00	  719.93	-2085.18	  457.49
     64.1700	  728.00	  731.16	-2113.41	  457.46
     64.2700	  796.00	  751.33	-2065.58	  457.42
     64.3700	  792.00	  784.36	-2102.61	  457.38
     64.4700	  833.00	  833.32	-2110.57	  457.34
     64.5700	  936.00	  901.69	-2075.94	  457.30
     64.6700	 1031.00	  991.80	-2071.05	  457.25
     64.7700	 1144.00	 1103.43	-2069.68	  457.21
     64.8700	 1237.00	 1232.26	-2105.51	  457.16
     64.9700	 1372.00	 1368.52	-2106.77	  457.12
     65.0700	 1451.00	 1496.50	-2155.75	  457.07
     65.1700	 1655.00	 1596.58	-2051.83	  457.02
     65.2700	 1586.00	 1650.13	-2174.38	  456.98
     65.3700	 1587.00	 1645.74	-2168.99	  456.93
     65.4700	 1556.00	 1583.90	-2138.15	  456.88
     65.5700	 1444.00	 1479.12	-2145.37	  456.83
     65.6700	 1282.00	 1352.06	-2180.31	  456.77
     65.7700	 1202.00	 1222.12	-2130.37	  456.72
     65.8700	 1020.00	 1102.52	-2192.77	  456.67
     65.9700	  943.00	 1000.03	-2167.28	  456.61
     66.0700	  883.00	  916.84	-2144.09	  456.55
     66.1700	  786.00	  852.19	-2176.44	  456.50
     66.2700	  764.00	  803.68	-2149.93	  456.44
     66.3700	  710.00	  768.39	-2168.64	  456.38
     66.4700	  709.00	  743.33	-2144.58	  456.32
     66.5700	  658.00	  725.84	-2178.09	  456.26
     66.6700	  687.00	  713.93	-2137.18	  456.20
     66.7700	  703.00	  706.19	-2113.44	  456.13
     66.8700	  701.00	  701.76	-2111.01	  456.07
     66.9700	  664.00	  700.18	-2146.43	  456.01
     67.0700	  670.00	  701.29	-2141.54	  455.94
     67.1700	  684.00	  705.38	-2131.63	  455.87
     67.2700	  637.00	  712.97	-2186.22	  455.81
     67.3700	  707.00	  725.54	-2128.79	  455.74
     67.4700	  729.00	  745.59	-2126.84	  455.67
     67.5700	  769.00	  776.60	-2117.85	  455.60
     67.6700	  884.00	  823.80	-2050.05	  455.53
     67.7700	  835.00	  893.67	-2168.92	  455.45
     67.8700	 1027.00	  993.41	-2076.66	  455.38
     67.9700	 1130.00	 1129.37	-2109.62	  455.31
     68.0700	 1360.00	 1305.42	-2055.67	  455.23
     68.1700	 1542.00	 1520.47	-2088.72	  455.15
     68.2700	 1734.00	 1766.38	-2142.63	  455.08
     68.3700	 2107.00	 2026.07	-2029.32	  455.00
     68.4700	 2284.00	 2272.06	-2098.31	  454.92
     68.5700	 2529.00	 2467.19	-2048.44	  454.84
     68.6700	 2591.00	 2571.53	-2090.78	  454.76
     68.7700	 2584.00	 2558.88	-2085.13	  454.68
     68.8700	 2391.00	 2432.45	-2151.70	  454.59
     68.9700	 2151.00	 2222.93	-2182.18	  454.51
     69.0700	 1970.00	 1970.81	-2111.06	  454.43
     69.1700	 1699.00	 1711.58	-2122.83	  454.34
     69.2700	 1459.00	 1470.49	-2121.74	  454.26
     69.3700	 1292.00	 1262.56	-2080.81	  454.17
     69.4700	 1203.00	 1094.37	-2001.62	  454.08
     69.5700	 1046.00	  965.76	-2030.01	  453.99
     69.6700	  896.00	  872.18	-2086.43	  453.90
     69.7700	  931.00	  806.84	-1986.09	  453.81
     69.8700	  806.00	  762.61	-2066.86	  453.72
     69.9700	  773.00	  733.23	-2070.48	  453.63
     70.0700	  767.00	  713.76	-2057.01	  453.53
     70.1700	  769.00	  700.72	-2041.97	  453.44
     70.2700	  739.00	  691.79	-2063.04	  453.34
     70.3700	  737.00	  685.58	-2058.83	  453.25
     70.4700	  728.00	  681.27	-2063.52	  453.15
     70.5700	  690.00	  678.38	-2098.63	  453.05
     70.6700	  689.00	  676.70	-2097.95	  452.95
     70.7700	  732.00	  676.16	-2054.41	  452.85
     70.8700	  727.00	  676.78	-2060.03	  452.75
     70.9700	  708.00	  678.74	-2080.99	  452.65
     71.0700	  694.00	  682.42	-2098.67	  452.55
     71.1700	  672.00	  688.26	-2126.51	  452.44
     71.2700	  660.00	  697.73	-2147.98	  452.34
     71.3700	  694.00	  712.29	-2128.54	  452.23
     71.4700	  731.00	  734.31	-2113.56	  452.13
     71.5700	  796.00	  766.99	-2081.24	  452.02
     71.6700	  811.00	  814.15	-2113.40	  451.91
     71.7700	  860.00	  880.01	-2130.26	  451.81
     71.8700	  971.00	  968.45	-2107.70	  451.70
     71.9700	 1109.00	 1082.02	-2083.27	  451.59
     72.0700	 1225.00	 1220.88	-2106.13	  451.47
     72.1700	 1425.00	 1381.65	-2066.90	  451.36
     72.2700	 1498.00	 1556.32	-2168.57	  451.25
     72.3700	 1803.00	 1731.54	-2038.79	  451.14
     72.4700	 1925.00	 1888.21	-2073.46	  451.02
     72.5700	 1929.00	 2002.92	-2184.17	  450.91
     72.6700	 2023.00	 2053.49	-2140.74	  450.79
     72.7700	 2013.00	 2028.35	-2125.60	  450.67
     72.8700	 1891.00	 1933.31	-2152.56	  450.56
     72.9700	 1730.00	 1788.05	-2168.30	  450.44
     73.0700	 1539.00	 1617.17	-2188.42	  450.32
     73.1700	 1401.00	 1440.08	-2149.33	  450.20
     73.2700	 1288.00	 1272.80	-2095.05	  450.08
     73.3700	 1154.00	 1125.03	-2081.28	  449.96
     73.4700	  981.00	 1001.60	-2130.85	  449.83
     73.5700	  909.00	  903.40	-2104.65	  449.71
     73.6700	  831.00	  828.59	-2107.84	  449.59
     73.7700	  773.00	  773.69	-2110.94	  449.46
     73.8700	  742.00	  734.61	-2102.86	  449.34
     73.9700	  707.00	  707.42	-2110.67	  449.21
     74.0700	  740.00	  688.78	-2059.03	  449.08
     74.1700	  694.00	  675.59	-2091.84	  448.96
     74.2700	  634.00	  667.10	-2143.35	  448.83
     74.3700	  707.00	  661.59	-2064.84	  448.70
     74.4700	  663.00	  658.32	-2105.57	  448.57
     74.5700	  694.00	  656.81	-2073.06	  448.44
     74.6700	  624.00	  656.75	-2143.00	  448.31
     74.7700	  653.00	  657.86	-2115.11	  448.17
     74.8700	  686.00	  659.85	-2084.10	  448.04
     74.9700	  648.00	  662.29	-2124.54	  447.91
     75.0700	  747.00	  664.84	-2028.09	  447.77
     75.1700	  657.00	  666.90	-2120.15	  447.64
     75.2700	  722.00	  667.94	-2056.19	  447.50
     75.3700	  695.00	  667.63	-2082.88	  447.36
     75.4700	  741.00	  666.01	-2035.26	  447.23
     75.5700	  652.00	  663.54	-2121.79	  447.09
     75.6700	  706.00	  660.95	-2065.20	  446.95
     75.7700	  740.00	  659.08	-2029.33	  446.81
     75.8700	  694.00	  658.72	-2074.97	  446.67
     75.9700	  704.00	  660.95	-2067.20	  446.53
     76.0700	  714.00	  666.69	-2062.94	  446.39
     76.1700	  685.00	  676.99	-2102.24	  446.25
     76.2700	  718.00	  692.92	-2085.17	  446.10
     76.3700	  722.00	  715.40	-2103.65	  445.96
     76.4700	  747.00	  745.07	-2108.32	  445.82
     76.5700	  798.00	  782.04	-2094.29	  445.67
     76.6700	  825.00	  825.70	-2110.95	  445.53
     76.7700	  873.00	  874.47	-2111.72	  445.38
     76.8700	  937.00	  925.63	-2098.88	  445.23
     76.9700	  953.00	  975.20	-2132.45	  445.09
     77.0700	 1003.00	 1017.95	-2125.20	  444.94
     77.1700	 1019.00	 1047.93	-2139.18	  444.79
     77.2700	  984.00	 1059.89	-2186.14	  444.64
     77.3700	 1024.00	 1051.37	-2137.62	  444.49
     77.4700	  944.00	 1023.98	-2190.23	  444.34
     77.5700	  959.00	  982.54	-2133.79	  444.19
     77.6700	  903.00	  932.77	-2140.02	  444.04
     77.7700	  887.00	  880.50	-2103.75	  443.89
     77.8700	  812.00	  829.74	-2127.99	  443.73
     77.9700	  724.00	  783.41	-2169.66	  443.58
     78.0700	  756.00	  743.24	-2097.49	  443.43
     78.1700	  754.00	  709.93	-2066.18	  443.27
     78.2700	  669.00	  683.43	-2124.68	  443.12
     78.3700	  653.00	  663.09	-2120.34	  442.96
     78.4700	  643.00	  647.99	-2115.24	  442.81
     78.5700	  625.00	  637.07	-2122.32	  442.65
     78.6700	  672.00	  629.34	-2067.59	  442.49
     78.7700	  605.00	  623.92	-2129.17	  442.34
     78.8700	  605.00	  620.17	-2125.42	  442.18
     78.9700	  630.00	  617.51	-2097.76	  442.02
     79.0700	  606.00	  615.72	-2119.97	  441.86
     79.1700	  620.00	  614.53	-2104.78	  441.70
     79.2700	  638.00	  613.79	-2086.04	  441.54
     79.3700	  609.00	  613.44	-2114.69	  441.38
     79.4700	  644.00	  613.45	-2079.70	  441.22
     79.5700	  625.00	  613.82	-2099.07	  441.06
     79.6700	  583.00	  614.60	-2141.85	  440.89
     79.7700	  637.00	  615.84	-2089.09	  440.73
     79.8700	  644.00	  617.66	-2083.91	  440.57
     79.9700	  587.00	  620.21	-2143.46	  440.41
     80.0700	  608.00	  623.77	-2126.02	  440.24
     80.1700	  625.00	  628.72	-2113.97	  440.08
     80.2700	  650.00	  635.69	-2095.94	  439.91
     80.3700	  616.00	  645.53	-2139.78	  439.75
     80.4700	  685.00	  659.21	-2084.46	  439.58
     80.5700	  646.00	  678.75	-2143.00	  439.42
     80.6700	  764.00	  705.69	-2051.94	  439.25
     80.7700	  773.00	  741.98	-2079.23	  439.08
     80.8700	  761.00	  789.46	-2138.71	  438.92
     80.9700	  872.00	  849.49	-2087.74	  438.75
     81.0700	 1011.00	  922.57	-2021.82	  438.58
     81.1700	 1092.00	 1007.79	-2026.04	  438.41
     81.2700	 1148.00	 1102.47	-2064.72	  438.24
     81.3700	 1303.00	 1201.93	-2009.18	  438.07
     81.4700	 1334.00	 1299.42	-2075.67	  437.90
     81.5700	 1398.00	 1386.68	-2098.93	  437.73
     81.6700	 1419.00	 1455.24	-2146.49	  437.56
     81.7700	 1542.00	 1498.40	-2066.65	  437.39
     81.8700	 1501.00	 1512.78	-2122.03	  437.22
     81.9700	 1477.00	 1498.54	-2131.79	  437.05
     82.0700	 1504.00	 1458.64	-2064.89	  436.88
     82.1700	 1414.00	 1398.22	-2094.47	  436.71
     82.2700	 1306.00	 1323.84	-2128.09	  436.54
     82.3700	 1206.00	 1242.29	-2146.54	  436.36
     82.4700	 1189.00	 1159.47	-2080.72	  436.19
     82.5700	 1098.00	 1079.90	-2092.15	  436.02
     82.6700	 1013.00	 1006.76	-2104.01	  435.85
     82.7700	  962.00	  941.96	-2090.21	  435.67
     82.8700	  841.00	  886.12	-2155.37	  435.50
     82.9700	  795.00	  838.82	-2154.07	  435.32
     83.0700	  844.00	  798.97	-2065.22	  435.15
     83.1700	  719.00	  765.32	-2156.57	  434.98
     83.2700	  723.00	  736.86	-2124.11	  434.80
     83.3700	  705.00	  712.92	-2118.17	  434.63
     83.4700	  666.00	  693.13	-2137.38	  434.45
     83.5700	  640.00	  677.27	-2147.52	  434.28
     83.6700	  656.00	  665.21	-2119.46	  434.10
     83.7700	  651.00	  656.86	-2116.11	  433.92
     83.8700	  649.00	  652.08	-2113.33	  433.75
     83.9700	  631.00	  650.65	-2129.90	  433.57
     84.0700	  666.00	  652.24	-2096.49	  433.40
     84.1700	  616.00	  656.36	-2150.61	  433.22
     84.2700	  699.00	  662.21	-2073.46	  433.04
     84.3700	  677.00	  669.28	-2102.53	  432.87
     84.4700	  679.00	  676.46	-2107.71	  432.69
     84.5700	  641.00	  682.70	-2151.95	  432.51
     84.6700	  627.00	  686.83	-2170.08	  432.34
     84.7700	  683.00	  688.16	-2115.42	  432.16
     84.8700	  639.00	  686.15	-2157.40	  431.98
     84.9700	  632.00	  680.92	-2159.17	  431.80
     85.0700	  689.00	  673.10	-2094.35	  431.63
     85.1700	  629.00	  663.59	-2144.84	  431.45
     85.2700	  651.00	  653.31	-2112.56	  431.27
     85.3700	  610.00	  643.08	-2143.33	  431.09
     85.4700	  623.00	  633.55	-2120.80	  430.92
     85.5700	  580.00	  625.23	-2155.48	  430.74
     85.6700	  610.00	  618.45	-2118.70	  430.56
     85.7700	  604.00	  613.41	-2119.66	  430.38
     85.8700	  628.00	  610.21	-2092.46	  430.21
     85.9700	  583.00	  608.89	-2136.14	  430.03
     86.0700	  623.00	  609.43	-2096.68	  429.85
     86.1700	  632.00	  611.79	-2090.04	  429.67
     86.2700	  598.00	  615.91	-2128.16	  429.49
     86.3700	  616.00	  621.71	-2115.96	  429.32
     86.4700	  691.00	  629.07	-2048.32	  429.14
     86.5700	  639.00	  637.79	-2109.04	  428.96
     86.6700	  588.00	  647.61	-2169.86	  428.78
     86.7700	  683.00	  658.18	-2085.43	  428.61
     86.8700	  709.00	  669.05	-2070.30	  428.43
     86.9700	  662.00	  679.71	-2127.96	  428.25
     87.0700	  707.00	  689.62	-2092.87	  428.07
     87.1700	  643.00	  698.33	-2165.58	  427.89
     87.2700	  745.00	  705.68	-2070.93	  427.72
     87.3700	  706.00	  711.83	-2116.08	  427.54
     87.4700	  680.00	  717.20	-2147.45	  427.36
     87.5700	  706.00	  722.31	-2126.56	  427.19
     87.6700	  688.00	  727.55	-2149.80	  427.01
     87.7700	  750.00	  733.09	-2093.34	  426.83
     87.8700	  696.00	  738.78	-2153.03	  426.66
     87.9700	  740.00	  744.19	-2114.44	  426.48
     88.0700	  745.00	  748.59	-2113.84	  426.30
     88.1700	  765.00	  751.07	-2096.32	  426.13
     88.2700	  717.00	  750.76	-2144.01	  425.95
     88.3700	  716.00	  747.08	-2141.33	  425.77
     88.4700	  695.00	  740.00	-2155.25	  425.60
     88.5700	  743.00	  729.99	-2097.24	  425.42
     88.6700	  722.00	  717.87	-2106.12	  425.25
     88.7700	  652.00	  704.58	-2162.83	  425.07
     88.8700	  682.00	  691.04	-2119.29	  424.90
     88.9700	  674.00	  677.63	-2113.88	  424.72
     89.0700	  640.00	  665.89	-2136.14	  424.55
     89.1700	  661.00	  655.89	-2105.14	  424.38
     89.2700	  639.00	  647.99	-2119.24	  424.20
     89.3700	  677.00	  642.33	-2075.58	  424.03
     89.4700	  673.00	  638.91	-2076.16	  423.85
     89.5700	  639.00	  637.54	-2108.79	  423.68
     89.6700	  665.00	  637.92	-2083.17	  423.51
     89.7700	  695.00	  639.60	-2054.85	  423.34
     89.8700	  681.00	  642.06	-2071.31	  423.16
     89.9700	  663.00	  644.71	-2091.96	  422.99
     90.0700	  712.00	  646.93	-2045.18	  422.82
     90.1700	  692.00	  648.13	-2066.38	  422.65
     90.2700	  681.00	  647.87	-2077.12	  422.48
     90.3700	  679.00	  645.95	-2077.20	  422.31
     90.4700	  666.00	  642.44	-2086.69	  422.14
     90.5700	  663.00	  637.63	-2084.88	  421.97
     90.6700	  707.00	  631.93	-2035.18	  421.80
     90.7700	  648.00	  625.76	-2088.01	  421.63
     90.8700	  630.00	  619.51	-2099.76	  421.46
     90.9700	  630.00	  613.50	-2093.75	  421.29
     91.0700	  656.00	  607.98	-2062.23	  421.13
     91.1700	  610.00	  603.10	-2103.35	  420.96
     91.2700	  646.00	  598.96	-2063.21	  420.79
     91.3700	  575.00	  595.60	-2130.85	  420.63
     91.4700	  605.00	  593.00	-2098.25	  420.46
     91.5700	  624.00	  591.11	-2077.35	  420.30
     91.6700	  611.00	  589.87	-2089.12	  420.13
     91.7700	  607.00	  589.22	-2092.47	  419.97
     91.8700	  597.00	  589.12	-2102.37	  419.80
     91.9700	  608.00	  589.55	-2091.80	  419.64
     92.0700	  615.00	  590.52	-2085.77	  419.48
     92.1700	  632.00	  592.09	-2070.34	  419.31
     92.2700	  583.00	  594.36	-2121.61	  419.15
     92.3700	  608.00	  597.47	-2099.72	  418.99
     92.4700	  604.00	  601.59	-2107.84	  418.83
     92.5700	  570.00	  606.95	-2147.20	  418.67
     92.6700	  641.00	  613.77	-2083.02	  418.51
     92.7700	  642.00	  622.30	-2090.55	  418.35
     92.8700	  622.00	  632.74	-2120.99	  418.19
     92.9700	  641.00	  645.27	-2114.52	  418.03
     93.0700	  629.00	  659.97	-2141.22	  417.88
     93.1700	  657.00	  676.84	-2130.09	  417.72
     93.2700	  684.00	  695.75	-2122.00	  417.57
     93.3700	  704.00	  716.41	-2122.66	  417.41
     93.4700	  703.00	  738.40	-2145.65	  417.25
     93.5700	  715.00	  761.10	-2156.35	  417.10
     93.6700	  737.00	  783.78	-2157.03	  416.95
     93.7700	  788.00	  805.58	-2127.83	  416.79
     93.8700	  770.00	  825.65	-2165.90	  416.64
     93.9700	  805.00	  843.34	-2148.59	  416.49
     94.0700	  832.00	  858.41	-2136.66	  416.34
     94.1700	  811.00	  871.09	-2170.34	  416.19
     94.2700	  848.00	  882.05	-2144.30	  416.04
     94.3700	  822.00	  892.11	-2180.36	  415.89
     94.4700	  866.00	  901.77	-2146.02	  415.75
     94.5700	  923.00	  912.28	-2099.53	  415.60
     94.6700	  927.00	  923.72	-2106.97	  415.45
     94.7700	  965.00	  936.32	-2081.57	  415.31
     94.8700	  954.00	  950.23	-2106.48	  415.16
     94.9700	  955.00	  965.54	-2120.79	  415.02
     95.0700	  997.00	  982.23	-2095.48	  414.88
     95.1700	  950.00	 1000.04	-2160.29	  414.73
     95.2700	 1022.00	 1018.29	-2106.54	  414.59
     95.3700	 1012.00	 1035.84	-2134.09	  414.45
     95.4700	 1022.00	 1051.11	-2139.36	  414.31
     95.5700	 1050.00	 1062.21	-2122.46	  414.17
     95.6700	  987.00	 1067.20	-2190.45	  414.04
     95.7700	 1086.00	 1064.54	-2088.79	  413.90
     95.8700	 1059.00	 1053.45	-2104.70	  413.76
     95.9700	 1016.00	 1034.18	-2128.43	  413.63
     96.0700	 1006.00	 1007.96	-2112.21	  413.49
     96.1700	  985.00	  976.73	-2101.98	  413.36
     96.2700	  934.00	  942.80	-2119.05	  413.23
     96.3700	  865.00	  908.50	-2153.75	  413.09
     96.4700	  874.00	  876.10	-2112.35	  412.96
     96.5700	  878.00	  847.64	-2079.89	  412.83
     96.6700	  813.00	  824.93	-2122.18	  412.70
     96.7700	  807.00	  809.44	-2112.69	  412.58
     96.8700	  818.00	  802.40	-2094.65	  412.45
     96.9700	  800.00	  804.74	-2114.99	  412.32
     97.0700	  862.00	  817.18	-2065.43	  412.20
     97.1700	  899.00	  840.15	-2051.40	  412.08
     97.2700	  910.00	  873.83	-2074.08	  411.95
     97.3700	 1000.00	  918.15	-2028.40	  411.83
     97.4700	 1043.00	  972.68	-2039.93	  411.71
     97.5700	 1058.00	 1036.63	-2088.88	  411.59
     97.6700	 1109.00	 1108.68	-2109.93	  411.47
     97.7700	 1196.00	 1187.00	-2101.25	  411.35
     97.8700	 1258.00	 1269.16	-2121.41	  411.24
     97.9700	 1360.00	 1352.09	-2102.33	  411.12
     98.0700	 1390.00	 1432.10	-2152.35	  411.01
     98.1700	 1484.00	 1504.95	-2131.20	  410.89
     98.2700	 1532.00	 1566.10	-2144.35	  410.78
     98.3700	 1545.00	 1611.19	-2176.44	  410.67
     98.4700	 1583.00	 1636.69	-2163.94	  410.56
     98.5700	 1601.00	 1640.69	-2149.94	  410.45
     98.6700	 1546.00	 1623.33	-2187.58	  410.35
     98.7700	 1618.00	 1586.72	-2078.97	  410.24
     98.8700	 1428.00	 1534.36	-2216.61	  410.13
     98.9700	 1469.00	 1470.52	-2111.77	  410.03
     99.0700	 1387.00	 1399.58	-2122.83	  409.93
     99.1700	 1287.00	 1325.72	-2148.97	  409.83
     99.2700	 1257.00	 1252.73	-2105.98	  409.73
     99.3700	 1202.00	 1183.82	-2092.07	  409.63
     99.4700	 1252.00	 1121.76	-1980.01	  409.53
     99.5700	 1106.00	 1068.77	-2073.02	  409.43
     99.6700	 1097.00	 1026.65	-2039.90	  409.34
     99.7700	  997.00	  996.81	-2110.06	  409.24
     99.8700	 1007.00	  980.27	-2083.52	  409.15
     99.9700	  986.00	  977.76	-2102.01	  409.06
    100.0700	 1034.00	  989.67	-2065.92	  408.97
    100.1700	 1039.00	 1016.09	-2087.34	  408.88
    100.2700	 1074.00	 1056.81	-2093.06	  408.79
    100.3700	 1136.00	 1111.32	-2085.57	  408.71
    100.4700	 1211.00	 1178.70	-2077.95	  408.62
    100.5700	 1232.00	 1257.65	-2135.90	  408.54
    100.6700	 1430.00	 1346.41	-2026.66	  408.46
    100.7700	 1389.00	 1442.72	-2163.97	  408.38
    100.8700	 1584.00	 1543.81	-2070.06	  408.30
    100.9700	 1628.00	 1646.28	-2128.53	  408.22
    101.0700	 1756.00	 1746.64	-2100.89	  408.14
    101.1700	 1800.00	 1840.95	-2151.20	  408.07
    101.2700	 1861.00	 1925.58	-2174.83	  407.99
    101.3700	 1998.00	 1997.56	-2109.81	  407.92
    101.4700	 2068.00	 2054.80	-2097.05	  407.85
    101.5700	 2073.00	 2096.17	-2133.42	  407.78
    101.6700	 2140.00	 2121.12	-2091.37	  407.71
    101.7700	 2104.00	 2129.41	-2135.66	  407.65
    101.8700	 2101.00	 2120.95	-2130.20	  407.58
    101.9700	 2122.00	 2095.97	-2084.22	  407.52
    102.0700	 2069.00	 2055.32	-2096.57	  407.46
    102.1700	 2072.00	 2000.85	-2039.10	  407.40
    102.2700	 1973.00	 1935.41	-2072.66	  407.34
    102.3700	 1945.00	 1862.66	-2027.91	  407.28
    102.4700	 1849.00	 1786.57	-2047.82	  407.23
    102.5700	 1739.00	 1710.87	-2082.12	  407.17
    102.6700	 1705.00	 1638.72	-2043.97	  407.12
    102.7700	 1612.00	 1572.48	-2070.73	  407.07
    102.8700	 1535.00	 1513.65	-2088.90	  407.02
    102.9700	 1505.00	 1462.92	-2068.17	  406.97
    103.0700	 1449.00	 1420.22	-2081.47	  406.93
    103.1700	 1394.00	 1384.81	-2101.06	  406.88
    103.2700	 1388.00	 1355.39	-2077.64	  406.84
    103.3700	 1299.00	 1330.12	-2141.37	  406.80
    103.4700	 1342.00	 1306.92	-2075.17	  406.76
    103.5700	 1231.00	 1283.60	-2162.85	  406.72
    103.6700	 1229.00	 1258.20	-2139.45	  406.69
    103.7700	 1227.00	 1229.30	-2112.55	  406.65
    103.8700	 1178.00	 1196.17	-2128.42	  406.62
    103.9700	 1117.00	 1158.81	-2152.06	  406.59
    104.0700	 1109.00	 1117.85	-2119.10	  406.56
    104.1700	 1078.00	 1074.29	-2106.54	  406.53
    104.2700	 1017.00	 1029.27	-2122.52	  406.51
    104.3700	 1002.00	  983.97	-2092.22	  406.48
    104.4700	  959.00	  939.45	-2090.70	  406.46
    104.5700	  926.00	  896.63	-2080.88	  406.44
    104.6700	  876.00	  856.28	-2090.53	  406.42
    104.7700	  805.00	  818.97	-2124.22	  406.40
    104.8700	  805.00	  785.10	-2090.35	  406.39
    104.9700	  799.00	  754.85	-2066.10	  406.38
    105.0700	  750.00	  728.41	-2088.66	  406.36
    105.1700	  743.00	  705.65	-2072.90	  406.35
    105.2700	  730.00	  686.39	-2066.64	  406.35
    105.3700	  714.00	  670.36	-2066.61	  406.34
    105.4700	  663.00	  657.26	-2104.51	  406.34
    105.5700	  649.00	  646.74	-2107.99	  406.34
    105.6700	  636.00	  638.49	-2112.74	  406.34
    105.7700	  615.00	  632.12	-2127.37	  406.34
    105.8700	  632.00	  627.48	-2105.73	  406.34
    105.9700	  660.00	  624.28	-2074.53	  406.35
    106.0700	  616.00	  622.33	-2116.58	  406.35
    106.1700	  646.00	  621.51	-2085.76	  406.36
    106.2700	  588.00	  621.73	-2143.98	  406.37
    106.3700	  632.00	  622.95	-2101.20	  406.39
    106.4700	  644.00	  625.15	-2091.40	  406.40
    106.5700	  651.00	  628.38	-2087.63	  406.42
    106.6700	  644.00	  632.67	-2098.92	  406.44
    106.7700	  667.00	  638.10	-2081.35	  406.46
    106.8700	  646.00	  644.72	-2108.97	  406.49
    106.9700	  616.00	  652.59	-2146.84	  406.51
    107.0700	  604.00	  661.76	-2168.01	  406.54
    107.1700	  674.00	  672.23	-2108.48	  406.57
    107.2700	  711.00	  683.96	-2083.21	  406.60
    107.3700	  715.00	  696.86	-2092.11	  406.63
    107.4700	  682.00	  710.73	-2138.98	  406.67
    107.5700	  710.00	  725.38	-2125.63	  406.71
    107.6700	  664.00	  740.49	-2186.74	  406.75
    107.7700	  720.00	  755.69	-2145.94	  406.79
    107.8700	  729.00	  770.55	-2151.80	  406.83
    107.9700	  753.00	  784.61	-2141.86	  406.88
    108.0700	  793.00	  797.35	-2114.60	  406.93
    108.1700	  793.00	  808.31	-2125.56	  406.98
    108.2700	  731.00	  817.06	-2196.31	  407.03
    108.3700	  782.00	  823.35	-2151.60	  407.09
    108.4700	  745.00	  827.06	-2192.31	  407.14
    108.5700	  738.00	  828.39	-2200.64	  407.20
    108.6700	  826.00	  827.65	-2111.90	  407.27
    108.7700	  791.00	  825.31	-2144.56	  407.33
    108.8700	  731.00	  821.92	-2201.17	  407.40
    108.9700	  805.00	  818.02	-2123.27	  407.46
    109.0700	  767.00	  814.11	-2157.36	  407.53
    109.1700	  767.00	  810.58	-2153.83	  407.61
    109.2700	  770.00	  807.74	-2147.99	  407.68
    109.3700	  766.00	  805.76	-2150.01	  407.76
    109.4700	  768.00	  804.70	-2146.95	  407.84
    109.5700	  762.00	  804.48	-2152.73	  407.92
    109.6700	  731.00	  804.91	-2184.16	  408.01
    109.7700	  765.00	  805.69	-2150.94	  408.09
    109.8700	  758.00	  806.44	-2158.69	  408.18
    109.9700	  792.00	  806.71	-2124.96	  408.27
    110.0700	  770.00	  806.04	-2146.29	  408.37
    110.1700	  758.00	  804.02	-2156.27	  408.46
    110.2700	  792.00	  800.38	-2118.63	  408.56
    110.3700	  804.00	  794.95	-2101.20	  408.66
    110.4700	  753.00	  787.75	-2145.00	  408.77
    110.5700	  747.00	  778.93	-2142.18	  408.87
    110.6700	  779.00	  768.77	-2100.02	  408.98
    110.7700	  739.00	  757.59	-2128.84	  409.09
    110.8700	  760.00	  745.74	-2095.99	  409.20
    110.9700	  734.00	  733.58	-2109.83	  409.32
    111.0700	  720.00	  721.41	-2111.66	  409.44
    111.1700	  718.00	  709.51	-2101.76	  409.56
    111.2700	  750.00	  698.14	-2058.39	  409.68
    111.3700	  654.00	  687.49	-2143.74	  409.81
    111.4700	  589.00	  677.70	-2198.95	  409.93
    111.5700	  679.00	  668.90	-2100.15	  410.06
    111.6700	  680.00	  661.15	-2091.40	  410.20
    111.7700	  650.00	  654.48	-2114.73	  410.33
    111.8700	  603.00	  648.90	-2156.15	  410.47
    111.9700	  649.00	  644.36	-2105.61	  410.61
    112.0700	  616.00	  640.83	-2135.08	  410.75
    112.1700	  652.00	  638.22	-2096.47	  410.90
    112.2700	  645.00	  636.44	-2101.69	  411.05
    112.3700	  618.00	  635.41	-2127.66	  411.20
    112.4700	  629.00	  635.02	-2116.27	  411.35
    112.5700	  576.00	  635.18	-2169.43	  411.51
    112.6700	  620.00	  635.78	-2126.03	  411.67
    112.7700	  609.00	  636.75	-2138.00	  411.83
    112.8700	  618.00	  637.99	-2130.24	  411.99
    112.9700	  638.00	  639.45	-2111.70	  412.16
    113.0700	  620.00	  641.06	-2131.31	  412.33
    113.1700	  609.00	  642.79	-2144.04	  412.50
    113.2700	  605.00	  644.61	-2149.86	  412.67
    113.3700	  591.00	  646.53	-2165.78	  412.85
    113.4700	  599.00	  648.57	-2159.82	  413.03
    113.5700	  662.00	  650.74	-2098.99	  413.22
    113.6700	  659.00	  653.10	-2104.35	  413.40
    113.7700	  644.00	  655.70	-2121.95	  413.59
    113.8700	  657.00	  658.60	-2111.85	  413.78
    113.9700	  598.00	  661.88	-2174.13	  413.97
    114.0700	  678.00	  665.66	-2097.91	  414.17
    114.1700	  643.00	  670.06	-2137.31	  414.37
    114.2700	  645.00	  675.24	-2140.49	  414.57
    114.3700	  622.00	  681.40	-2169.65	  414.78
    114.4700	  699.00	  688.80	-2100.05	  414.99
    114.5700	  731.00	  697.79	-2077.04	  415.20
    114.6700	  740.00	  708.80	-2079.05	  415.41
    114.7700	  743.00	  722.40	-2089.65	  415.63
    114.8700	  767.00	  739.28	-2082.53	  415.85
    114.9700	  800.00	  760.32	-2070.57	  416.07
    115.0700	  822.00	  786.59	-2074.84	  416.29
    115.1700	  838.00	  819.40	-2091.65	  416.52
    115.2700	  925.00	  860.32	-2045.57	  416.75
    115.3700	  996.00	  911.14	-2025.39	  416.98
    115.4700	 1021.00	  973.95	-2063.20	  417.22
    115.5700	 1113.00	 1051.07	-2048.32	  417.46
    115.6700	 1317.00	 1145.05	-1938.30	  417.70
    115.7700	 1479.00	 1258.64	-1889.89	  417.95
    115.8700	 1530.00	 1394.60	-1974.85	  418.20
    115.9700	 1759.00	 1555.71	-1906.96	  418.45
    116.0700	 2014.00	 1744.53	-1840.78	  418.70
    116.1700	 2230.00	 1963.35	-1843.60	  418.96
    116.2700	 2401.00	 2213.97	-1923.22	  419.22
    116.3700	 2747.00	 2497.40	-1860.65	  419.48
    116.4700	 3058.00	 2813.82	-1866.07	  419.75
    116.5700	 3328.00	 3162.25	-1944.50	  420.02
    116.6700	 3565.00	 3540.58	-2085.83	  420.29
    116.7700	 4221.00	 3945.38	-1834.63	  420.56
    116.8700	 4522.00	 4371.63	-1959.88	  420.84
    116.9700	 4861.00	 4812.93	-2062.18	  421.12
    117.0700	 5229.00	 5261.43	-2142.68	  421.41
    117.1700	 5643.00	 5708.05	-2175.30	  421.70
    117.2700	 5909.00	 6142.55	-2343.80	  421.99
    117.3700	 6486.00	 6553.60	-2177.85	  422.28
    117.4700	 6728.00	 6929.37	-2311.62	  422.58
    117.5700	 7140.00	 7257.82	-2228.07	  422.88
    117.6700	 7302.00	 7527.53	-2335.78	  423.18
    117.7700	 7327.00	 7728.29	-2511.54	  423.49
    117.8700	 7576.00	 7852.02	-2386.27	  423.80
    117.9700	 7558.00	 7893.64	-2445.89	  424.11
    118.0700	 7584.00	 7851.74	-2377.99	  424.42
    118.1700	 7500.00	 7728.64	-2338.89	  424.74
    118.2700	 7202.00	 7530.11	-2438.36	  425.07
    118.3700	 6951.00	 7264.77	-2424.02	  425.39
    118.4700	 6527.00	 6943.12	-2526.37	  425.72
    118.5700	 6414.00	 6576.78	-2273.03	  426.05
    118.6700	 6062.00	 6177.54	-2225.79	  426.39
    118.7700	 5638.00	 5756.90	-2229.15	  426.72
    118.8700	 5290.00	 5325.77	-2146.02	  427.07
    118.9700	 5009.00	 4893.95	-1995.20	  427.41
    119.0700	 4604.00	 4470.10	-1976.35	  427.76
    119.1700	 4270.00	 4061.38	-1901.63	  428.11
    119.2700	 3981.00	 3673.52	-1802.77	  428.46
    119.3700	 3646.00	 3310.92	-1775.17	  428.82
    119.4700	 3283.00	 2976.57	-1803.82	  429.18
    119.5700	 2997.00	 2672.20	-1785.45	  429.55
    119.6700	 2644.00	 2398.32	-1864.57	  429.92
    119.7700	 2443.00	 2154.55	-1821.80	  430.29
    119.8700	 2206.00	 1939.80	-1844.05	  430.66
    119.9700	 1981.00	 1752.38	-1881.63	  431.04
    120.0700	 1831.00	 1590.21	-1869.46	  431.42
    120.1700	 1624.00	 1450.92	-1937.17	  431.80
    120.2700	 1551.00	 1332.05	-1891.30	  432.19
    120.3700	 1411.00	 1231.16	-1930.41	  432.58
    120.4700	 1273.00	 1145.89	-1983.14	  432.98
    120.5700	 1225.00	 1074.04	-1959.29	  433.38
    120.6700	 1137.00	 1013.59	-1986.84	  433.78
    120.7700	 1063.00	  962.75	-2010.00	  434.18
    120.8700	 1066.00	  919.98	-1964.23	  434.59
    120.9700	  988.00	  883.96	-2006.21	  435.00
    121.0700	  944.00	  853.57	-2019.82	  435.42
    121.1700	  924.00	  827.90	-2014.15	  435.84
    121.2700	  841.00	  806.19	-2075.44	  436.26
    121.3700	  791.00	  787.83	-2107.08	  436.68
    121.4700	  778.00	  772.35	-2104.60	  437.11
    121.5700	  745.00	  759.34	-2124.59	  437.55
    121.6700	  740.00	  748.51	-2118.76	  437.98
    121.7700	  734.00	  739.60	-2115.85	  438.42
    121.8700	  713.00	  732.42	-2129.67	  438.86
    121.9700	  695.00	  726.80	-2142.05	  439.31
    122.0700	  730.00	  722.62	-2102.87	  439.76
    122.1700	  719.00	  719.78	-2111.03	  440.22
    122.2700	  654.00	  718.19	-2174.44	  440.67
    122.3700	  673.00	  717.77	-2155.02	  441.13
    122.4700	  672.00	  718.46	-2156.71	  441.60
    122.5700	  672.00	  720.20	-2158.45	  442.07
    122.6700	  658.00	  722.93	-2175.18	  442.54
    122.7700	  699.00	  726.60	-2137.85	  443.01
    122.8700	  730.00	  731.15	-2111.40	  443.49
    122.9700	  688.00	  736.50	-2158.75	  443.97
    123.0700	  699.00	  742.58	-2153.83	  444.46
    123.1700	  652.00	  749.32	-2207.57	  444.95
    123.2700	  701.00	  756.62	-2165.87	  445.44
    123.3700	  768.00	  764.38	-2106.63	  445.94
    123.4700	  764.00	  772.50	-2118.75	  446.44
    123.5700	  745.00	  780.85	-2146.10	  446.95
    123.6700	  733.00	  789.31	-2166.56	  447.45
    123.7700	  774.00	  797.74	-2133.99	  447.97
    123.8700	  733.00	  806.02	-2183.27	  448.48
    123.9700	  769.00	  814.00	-2155.25	  449.00
    124.0700	  808.00	  821.56	-2123.81	  449.52
    124.1700	  827.00	  828.59	-2111.84	  450.05
    124.2700	  812.00	  835.00	-2133.25	  450.58
    124.3700	  760.00	  840.73	-2190.98	  451.11
    124.4700	  846.00	  845.74	-2109.99	  451.65
    124.5700	  823.00	  850.03	-2137.28	  452.19
    124.6700	  767.00	  853.68	-2196.93	  452.74
    124.7700	  839.00	  856.71	-2127.96	  453.29
    124.8700	  830.00	  859.19	-2139.44	  453.84
    124.9700	  813.00	  589.84	-1887.09	  454.40
    125.0700	  797.00	  590.40	-2110.25	  454.96
    125.1700	  833.00	  590.97	-2110.25	  455.52
    125.2700	  781.00	  591.54	-2110.25	  456.09
    125.3700	  836.00	  592.11	-2110.25	  456.66
    125.4700	  819.00	  592.68	-2110.25	  457.24
    125.5700	  812.00	  593.26	-2110.25	  457.82
    125.6700	  760.00	  593.85	-2110.25	  458.40
    125.7700	  789.00	  594.43	-2110.25	  458.99
    125.8700	  776.00	  595.02	-2110.25	  459.58
    125.9700	  818.00	  595.62	-2110.25	  460.17
    126.0700	  750.00	  596.22	-2110.25	  460.77
    126.1700	  790.00	  596.82	-2110.25	  461.38
    126.2700	  759.00	  597.43	-2110.25	  461.98
    126.3700	  743.00	  598.04	-2110.25	  462.59
    126.4700	  792.00	  598.65	-2110.25	  463.21
    126.5700	  778.00	  599.27	-2110.25	  463.83
    126.6700	  761.00	  599.89	-2110.25	  464.45
    126.7700	  739.00	  600.52	-2110.25	  465.08
    126.8700	  758.00	  601.15	-2110.25	  465.71
    126.9700	  805.00	  601.79	-2110.25	  466.34
    127.0700	  751.00	  602.42	-2110.25	  466.98
    127.1700	  706.00	  603.07	-2110.25	  467.62
    127.2700	  699.00	  603.71	-2110.25	  468.27
    127.3700	  675.00	  604.36	-2110.25	  468.92
    127.4700	  644.00	  605.02	-2110.25	  469.57
    127.5700	  681.00	  605.67	-2110.25	  470.23
    127.6700	  642.00	  606.34	-2110.25	  470.89
    127.7700	  631.00	  607.00	-2110.25	  471.56
    127.8700	  668.00	  607.67	-2110.25	  472.23
    127.9700	  697.00	  608.35	-2110.25	  472.90
    128.0700	  665.00	  609.03	-2110.25	  473.58
    128.1700	  651.00	  609.71	-2110.25	  474.26
    128.2700	  711.00	  610.39	-2110.25	  474.95
    128.3700	  664.00	  611.08	-2110.25	  475.64
    128.4700	  669.00	  611.78	-2110.25	  476.33
    128.5700	    0.00	  612.48	-2110.25	  477.03
    128.6700	    0.00	  613.18	-2110.25	  477.73
     12.4435	        	        	        	        	       0	(  0  0  2)	  0  1
     12.4435	        	        	        	        	    -527	(  0  0  2)	  0  1
     25.1245	        	        	        	        	       0	(  0  0  4)	  0  1
     25.1245	        	        	        	        	    -527	(  0  0  4)	  0  1
     28.5694	        	        	        	        	       0	(  1  0  0)	  0  1
     28.5694	        	        	        	        	    -527	(  1  0  0)	  0  1
     29.2727	        	        	        	        	       0	(  1  0  1)	  0  1
     29.2727	        	        	        	        	    -527	(  1  0  1)	  0  1
     31.2966	        	        	        	        	       0	(  1  0  2)	  0  1
     31.2966	        	        	        	        	    -527	(  1  0  2)	  0  1
     34.4323	        	        	        	        	       0	(  1  0  3)	  0  1
     34.4323	        	        	        	        	    -527	(  1  0  3)	  0  1
     38.1291	        	        	        	        	       0	(  0  0  6)	  0  1
     38.1291	        	        	        	        	    -527	(  0  0  6)	  0  1
     38.4445	        	        	        	        	       0	(  1  0  4)	  0  1
     38.4445	        	        	        	        	    -527	(  1  0  4)	  0  1
     43.1363	        	        	        	        	       0	(  1  0  5)	  0  1
     43.1363	        	        	        	        	    -527	(  1  0  5)	  0  1
     48.3679	        	        	        	        	       0	(  1  0  6)	  0  1
     48.3679	        	        	        	        	    -527	(  1  0  6)	  0  1
     50.6735	        	        	        	        	       0	(  1  1  0)	  0  1
     50.6735	        	        	        	        	    -527	(  1  1  0)	  0  1
     51.6695	        	        	        	        	       0	(  0  0  8)	  0  1
     51.6695	        	        	        	        	    -527	(  0  0  8)	  0  1
     52.4136	        	        	        	        	       0	(  1  1  2)	  0  1
     52.4136	        	        	        	        	    -527	(  1  1  2)	  0  1
     54.0518	        	        	        	        	       0	(  1  0  7)	  0  1
     54.0518	        	        	        	        	    -527	(  1  0  7)	  0  1
     57.4116	        	        	        	        	       0	(  1  1  4)	  0  1
     57.4116	        	        	        	        	    -527	(  1  1  4)	  0  1
     59.2431	        	        	        	        	       0	(  2  0  0)	  0  1
     59.2431	        	        	        	        	    -527	(  2  0  0)	  0  1
     59.6388	        	        	        	        	       0	(  2  0  1)	  0  1
     59.6388	        	        	        	        	    -527	(  2  0  1)	  0  1
     60.1420	        	        	        	        	       0	(  1  0  8)	  0  1
     60.1420	        	        	        	        	    -527	(  1  0  8)	  0  1
     60.8166	        	        	        	        	       0	(  2  0  2)	  0  1
     60.8166	        	        	        	        	    -527	(  2  0  2)	  0  1
     62.7504	        	        	        	        	       0	(  2  0  3)	  0  1
     62.7504	        	        	        	        	    -527	(  2  0  3)	  0  1
     65.1878	        	        	        	        	       0	(  1  1  6)	  0  1
     65.1878	        	        	        	        	    -527	(  1  1  6)	  0  1
     65.4032	        	        	        	        	       0	(  2  0  4)	  0  1
     65.4032	        	        	        	        	    -527	(  2  0  4)	  0  1
     66.0401	        	        	        	        	       0	(  0  0 10)	  0  1
     66.0401	        	        	        	        	    -527	(  0  0 10)	  0  1
     66.6259	        	        	        	        	       0	(  1  0  9)	  0  1
     66.6259	        	        	        	        	    -527	(  1  0  9)	  0  1
     68.7344	        	        	        	        	       0	(  2  0  5)	  0  1
     68.7344	        	        	        	        	    -527	(  2  0  5)	  0  1
     72.7077	        	        	        	        	       0	(  2  0  6)	  0  1
     72.7077	        	        	        	        	    -527	(  2  0  6)	  0  1
     73.5191	        	        	        	        	       0	(  1  0 10)	  0  1
     73.5191	        	        	        	        	    -527	(  1  0 10)	  0  1
     75.3411	        	        	        	        	       0	(  1  1  8)	  0  1
     75.3411	        	        	        	        	    -527	(  1  1  8)	  0  1
     77.2971	        	        	        	        	       0	(  2  0  7)	  0  1
     77.2971	        	        	        	        	    -527	(  2  0  7)	  0  1
     80.8665	        	        	        	        	       0	(  1  0 11)	  0  1
     80.8665	        	        	        	        	    -527	(  1  0 11)	  0  1
     81.7099	        	        	        	        	       0	(  2  1  0)	  0  1
     81.7099	        	        	        	        	    -527	(  2  1  0)	  0  1
     81.7034	        	        	        	        	       0	(  0  0 12)	  0  1
     81.7034	        	        	        	        	    -527	(  0  0 12)	  0  1
     82.0543	        	        	        	        	       0	(  2  1  1)	  0  1
     82.0543	        	        	        	        	    -527	(  2  1  1)	  0  1
     82.4940	        	        	        	        	       0	(  2  0  8)	  0  1
     82.4940	        	        	        	        	    -527	(  2  0  8)	  0  1
     83.0860	        	        	        	        	       0	(  2  1  2)	  0  1
     83.0860	        	        	        	        	    -527	(  2  1  2)	  0  1
     84.8006	        	        	        	        	       0	(  2  1  3)	  0  1
     84.8006	        	        	        	        	    -527	(  2  1  3)	  0  1
     87.1938	        	        	        	        	       0	(  2  1  4)	  0  1
     87.1938	        	        	        	        	    -527	(  2  1  4)	  0  1
     87.7753	        	        	        	        	       0	(  1  1 10)	  0  1
     87.7753	        	        	        	        	    -527	(  1  1 10)	  0  1
     88.3124	        	        	        	        	       0	(  2  0  9)	  0  1
     88.3124	        	        	        	        	    -527	(  2  0  9)	  0  1
     88.7483	        	        	        	        	       0	(  1  0 12)	  0  1
     88.7483	        	        	        	        	    -527	(  1  0 12)	  0  1
     90.2643	        	        	        	        	       0	(  2  1  5)	  0  1
     90.2643	        	        	        	        	    -527	(  2  1  5)	  0  1
     94.0194	        	        	        	        	       0	(  2  1  6)	  0  1
     94.0194	        	        	        	        	    -527	(  2  1  6)	  0  1
     94.7986	        	        	        	        	       0	(  2  0 10)	  0  1
     94.7986	        	        	        	        	    -527	(  2  0 10)	  0  1
     95.7820	        	        	        	        	       0	(  3  0  0)	  0  1
     95.7820	        	        	        	        	    -527	(  3  0  0)	  0  1
     96.1249	        	        	        	        	       0	(  3  0  1)	  0  1
     96.1249	        	        	        	        	    -527	(  3  0  1)	  0  1
     97.1552	        	        	        	        	       0	(  3  0  2)	  0  1
     97.1552	        	        	        	        	    -527	(  3  0  2)	  0  1
     97.2951	        	        	        	        	       0	(  1  0 13)	  0  1
     97.2951	        	        	        	        	    -527	(  1  0 13)	  0  1
     98.4815	        	        	        	        	       0	(  2  1  7)	  0  1
     98.4815	        	        	        	        	    -527	(  2  1  7)	  0  1
     98.8777	        	        	        	        	       0	(  3  0  3)	  0  1
     98.8777	        	        	        	        	    -527	(  3  0  3)	  0  1
     99.5111	        	        	        	        	       0	(  0  0 14)	  0  1
     99.5111	        	        	        	        	    -527	(  0  0 14)	  0  1
    101.3034	        	        	        	        	       0	(  3  0  4)	  0  1
    101.3034	        	        	        	        	    -527	(  3  0  4)	  0  1
    102.0452	        	        	        	        	       0	(  2  0 11)	  0  1
    102.0452	        	        	        	        	    -527	(  2  0 11)	  0  1
    102.8928	        	        	        	        	       0	(  1  1 12)	  0  1
    102.8928	        	        	        	        	    -527	(  1  1 12)	  0  1
    103.6979	        	        	        	        	       0	(  2  1  8)	  0  1
    103.6979	        	        	        	        	    -527	(  2  1  8)	  0  1
    104.4536	        	        	        	        	       0	(  3  0  5)	  0  1
    104.4536	        	        	        	        	    -527	(  3  0  5)	  0  1
    106.7232	        	        	        	        	       0	(  1  0 14)	  0  1
    106.7232	        	        	        	        	    -527	(  1  0 14)	  0  1
    108.3669	        	        	        	        	       0	(  3  0  6)	  0  1
    108.3669	        	        	        	        	    -527	(  3  0  6)	  0  1
    109.7576	        	        	        	        	       0	(  2  1  9)	  0  1
    109.7576	        	        	        	        	    -527	(  2  1  9)	  0  1
    110.2215	        	        	        	        	       0	(  2  0 12)	  0  1
    110.2215	        	        	        	        	    -527	(  2  0 12)	  0  1
    113.1119	        	        	        	        	       0	(  3  0  7)	  0  1
    113.1119	        	        	        	        	    -527	(  3  0  7)	  0  1
    116.8214	        	        	        	        	       0	(  2  1 10)	  0  1
    116.8214	        	        	        	        	    -527	(  2  1 10)	  0  1
    117.4178	        	        	        	        	       0	(  1  0 15)	  0  1
    117.4178	        	        	        	        	    -527	(  1  0 15)	  0  1
    117.9247	        	        	        	        	       0	(  2  2  0)	  0  1
    117.9247	        	        	        	        	    -527	(  2  2  0)	  0  1
    118.8082	        	        	        	        	       0	(  3  0  8)	  0  1
    118.8082	        	        	        	        	    -527	(  3  0  8)	  0  1
    119.4814	        	        	        	        	       0	(  2  2  2)	  0  1
    119.4814	        	        	        	        	    -527	(  2  2  2)	  0  1
    119.6411	        	        	        	        	       0	(  2  0 13)	  0  1
    119.6411	        	        	        	        	    -527	(  2  0 13)	  0  1
    121.5060	        	        	        	        	       0	(  0  0 16)	  0  1
    121.5060	        	        	        	        	    -527	(  0  0 16)	  0  1
    122.1982	        	        	        	        	       0	(  1  1 14)	  0  1
    122.1982	        	        	        	        	    -527	(  1  1 14)	  0  1
    124.3077	        	        	        	        	       0	(  2  2  4)	  0  1
    124.3077	        	        	        	        	    -527	(  2  2  4)	  0  1
    125.1925	        	        	        	        	       0	(  2  1 11)	  0  1
    125.1925	        	        	        	        	    -527	(  2  1 11)	  0  1
    125.6736	        	        	        	        	       0	(  3  0  9)	  0  1
    125.6736	        	        	        	        	    -527	(  3  0  9)	  0  1
    126.2204	        	        	        	        	       0	(  3  1  0)	  0  1
    126.2204	        	        	        	        	    -527	(  3  1  0)	  0  1
    126.6448	        	        	        	        	       0	(  3  1  1)	  0  1
    126.6448	        	        	        	        	    -527	(  3  1  1)	  0  1
    127.9323	        	        	        	        	       0	(  3  1  2)	  0  1
    127.9323	        	        	        	        	    -527	(  3  1  2)	  0  1
    130.1303	        	        	        	        	       0	(  3  1  3)	  0  1
    130.1303	        	        	        	        	    -527	(  3  1  3)	  0  1
    130.1796	        	        	        	        	       0	(  1  0 16)	  0  1
    130.1796	        	        	        	        	    -527	(  1  0 16)	  0  1
    130.9539	        	        	        	        	       0	(  2  0 14)	  0  1
    130.9539	        	        	        	        	    -527	(  2  0 14)	  0  1
    133.0650	        	        	        	        	       0	(  2  2  6)	  0  1
    133.0650	        	        	        	        	    -527	(  2  2  6)	  0  1
    133.3340	        	        	        	        	       0	(  3  1  4)	  0  1
    133.3340	        	        	        	        	    -527	(  3  1  4)	  0  1
    134.1393	        	        	        	        	       0	(  3  0 10)	  0  1
    134.1393	        	        	        	        	    -527	(  3  0 10)	  0  1
    135.5126	        	        	        	        	       0	(  2  1 12)	  0  1
    135.5126	        	        	        	        	    -527	(  2  1 12)	  0  1
    137.7232	        	        	        	        	       0	(  3  1  5)	  0  1
    137.7232	        	        	        	        	    -527	(  3  1  5)	  0  1
    143.6586	        	        	        	        	       0	(  3  1  6)	  0  1
    143.6586	        	        	        	        	    -527	(  3  1  6)	  0  1
    145.2478	        	        	        	        	       0	(  3  0 11)	  0  1
    145.2478	        	        	        	        	    -527	(  3  0 11)	  0  1
    145.9309	        	        	        	        	       0	(  2  0 15)	  0  1
    145.9309	        	        	        	        	    -527	(  2  0 15)	  0  1
    147.3467	        	        	        	        	       0	(  1  0 17)	  0  1
    147.3467	        	        	        	        	    -527	(  1  0 17)	  0  1
    148.1898	        	        	        	        	       0	(  2  2  8)	  0  1
    148.1898	        	        	        	        	    -527	(  2  2  8)	  0  1
    149.5990	        	        	        	        	       0	(  2  1 13)	  0  1
    149.5990	        	        	        	        	    -527	(  2  1 13)	  0  1
    152.0143	        	        	        	        	       0	(  3  1  7)	  0  1
    152.0143	        	        	        	        	    -527	(  3  1  7)	  0  1
    152.9460	        	        	        	        	       0	(  1  1 16)	  0  1
    152.9460	        	        	        	        	    -527	(  1  1 16)	  0  1
    158.1356	        	        	        	        	       0	(  0  0 18)	  0  1
    158.1356	        	        	        	        	    -527	(  0  0 18)	  0  1
    163.5505	        	        	        	        	       0	(  4  0  0)	  0  1
    163.5505	        	        	        	        	    -527	(  4  0  0)	  0  1
    163.5276	        	        	        	        	       0	(  3  0 12)	  0  1
    163.5276	        	        	        	        	    -527	(  3  0 12)	  0  1
    164.8081	        	        	        	        	       0	(  4  0  1)	  0  1
    164.8081	        	        	        	        	    -527	(  4  0  1)	  0  1
    166.5819	        	        	        	        	       0	(  3  1  8)	  0  1
    166.5819	        	        	        	        	    -527	(  3  1  8)	  0  1
    169.4286	        	        	        	        	       0	(  4  0  2)	  0  1
    169.4286	        	        	        	        	    -527	(  4  0  2)	  0  1
