MSG Master    CELL:    5.88494   5.88494  23.13194   90.0000   90.0000  120.0000   SPGR: P 63/m m c             TEMP:    590.15
  2   1280     2.52000     0.00000    -0.08930     0.00000     0.00000    0
    96    96     0     0     2
       0.00000      10.00000
     125.00000     130.00000
 2Theta	Yobs	Ycal	Yobs-Ycal	Backg	Posr	(hkl)	K
      0.7700	    0.00	  906.88	-1931.24	  776.84
      0.8700	    0.00	  904.10	-1931.24	  774.06
      0.9700	   47.00	  901.34	-1931.24	  771.29
      1.0700	   54.00	  898.59	-1931.24	  768.54
      1.1700	   46.00	  895.86	-1931.24	  765.81
      1.2700	   63.00	  893.14	-1931.24	  763.10
      1.3700	   47.00	  890.44	-1931.24	  760.40
      1.4700	   77.00	  887.76	-1931.24	  757.71
      1.5700	  280.00	  885.09	-1931.24	  755.05
      1.6700	  466.00	  882.44	-1931.24	  752.39
      1.7700	  540.00	  879.80	-1931.24	  749.76
      1.8700	  644.00	  877.18	-1931.24	  747.14
      1.9700	  747.00	  874.58	-1931.24	  744.53
      2.0700	  798.00	  871.99	-1931.24	  741.95
      2.1700	  762.00	  869.42	-1931.24	  739.37
      2.2700	  766.00	  866.86	-1931.24	  736.82
      2.3700	  794.00	  864.32	-1931.24	  734.27
      2.4700	  693.00	  861.79	-1931.24	  731.75
      2.5700	  670.00	  859.28	-1931.24	  729.24
      2.6700	  673.00	  856.78	-1931.24	  726.74
      2.7700	  666.00	  854.30	-1931.24	  724.26
      2.8700	  647.00	  851.84	-1931.24	  721.79
      2.9700	  648.00	  849.39	-1931.24	  719.34
      3.0700	  626.00	  846.95	-1931.24	  716.91
      3.1700	  610.00	  844.53	-1931.24	  714.49
      3.2700	  736.00	  842.13	-1931.24	  712.08
      3.3700	  888.00	  839.73	-1931.24	  709.69
      3.4700	 1112.00	  837.36	-1931.24	  707.31
      3.5700	 1163.00	  835.00	-1931.24	  704.95
      3.6700	 1255.00	  832.65	-1931.24	  702.61
      3.7700	 1483.00	  830.32	-1931.24	  700.28
      3.8700	 1540.00	  828.00	-1931.24	  697.96
      3.9700	 1578.00	  825.70	-1931.24	  695.65
      4.0700	 1624.00	  823.41	-1931.24	  693.37
      4.1700	 1749.00	  821.14	-1931.24	  691.09
      4.2700	 1678.00	  818.88	-1931.24	  688.83
      4.3700	 1579.00	  816.63	-1931.24	  686.59
      4.4700	 1578.00	  814.40	-1931.24	  684.36
      4.5700	 1600.00	  812.18	-1931.24	  682.14
      4.6700	 1525.00	  809.98	-1931.24	  679.94
      4.7700	 1403.00	  807.79	-1931.24	  677.75
      4.8700	 1436.00	  805.62	-1931.24	  675.57
      4.9700	 1435.00	  803.46	-1931.24	  673.41
      5.0700	 1387.00	  801.31	-1931.24	  671.26
      5.1700	 1287.00	  799.17	-1931.24	  669.13
      5.2700	 1261.00	  797.05	-1931.24	  667.01
      5.3700	 1197.00	  794.95	-1931.24	  664.90
      5.4700	 1184.00	  792.86	-1931.24	  662.81
      5.5700	 1165.00	  790.78	-1931.24	  660.73
      5.6700	 1121.00	  788.71	-1931.24	  658.67
      5.7700	 1144.00	  786.66	-1931.24	  656.62
      5.8700	 1044.00	  784.62	-1931.24	  654.58
      5.9700	 1017.00	  782.60	-1931.24	  652.55
      6.0700	 1031.00	  780.58	-1931.24	  650.54
      6.1700	  975.00	  778.59	-1931.24	  648.54
      6.2700	 1008.00	  776.60	-1931.24	  646.56
      6.3700	 1019.00	  774.63	-1931.24	  644.58
      6.4700	  987.00	  772.67	-1931.24	  642.62
      6.5700	  980.00	  770.72	-1931.24	  640.68
      6.6700	  997.00	  768.79	-1931.24	  638.74
      6.7700	  862.00	  766.87	-1931.24	  636.82
      6.8700	  907.00	  764.96	-1931.24	  634.92
      6.9700	  880.00	  763.07	-1931.24	  633.02
      7.0700	  926.00	  761.18	-1931.24	  631.14
      7.1700	  855.00	  759.31	-1931.24	  629.27
      7.2700	  884.00	  757.46	-1931.24	  627.41
      7.3700	  830.00	  755.61	-1931.24	  625.57
      7.4700	  836.00	  753.78	-1931.24	  623.74
      7.5700	  865.00	  751.96	-1931.24	  621.92
      7.6700	  838.00	  750.15	-1931.24	  620.11
      7.7700	  802.00	  748.36	-1931.24	  618.31
      7.8700	  786.00	  746.58	-1931.24	  616.53
      7.9700	  814.00	  744.81	-1931.24	  614.76
      8.0700	  794.00	  743.05	-1931.24	  613.00
      8.1700	  814.00	  741.30	-1931.24	  611.26
      8.2700	  816.00	  739.57	-1931.24	  609.52
      8.3700	  778.00	  737.85	-1931.24	  607.80
      8.4700	  744.00	  736.14	-1931.24	  606.09
      8.5700	  803.00	  734.44	-1931.24	  604.39
      8.6700	  735.00	  732.75	-1931.24	  602.71
      8.7700	  748.00	  731.08	-1931.24	  601.03
      8.8700	  758.00	  729.41	-1931.24	  599.37
      8.9700	  790.00	  727.76	-1931.24	  597.72
      9.0700	  727.00	  726.12	-1931.24	  596.08
      9.1700	  743.00	  724.50	-1931.24	  594.45
      9.2700	  747.00	  722.88	-1931.24	  592.84
      9.3700	  689.00	  721.28	-1931.24	  591.23
      9.4700	  763.00	  719.68	-1931.24	  589.64
      9.5700	  732.00	  718.10	-1931.24	  588.06
      9.6700	  746.00	  716.53	-1931.24	  586.49
      9.7700	  741.00	  714.97	-1931.24	  584.93
      9.8700	  719.00	  713.42	-1931.24	  583.38
      9.9700	  705.00	  711.89	-1931.24	  581.84
     10.0700	  724.00	  712.42	-1919.65	  580.32
     10.1700	  708.00	  711.13	-1934.37	  578.80
     10.2700	  680.00	  709.90	-1961.13	  577.30
     10.3700	  711.00	  708.74	-1928.97	  575.80
     10.4700	  686.00	  707.68	-1952.91	  574.32
     10.5700	  733.00	  706.76	-1905.00	  572.85
     10.6700	  696.00	  706.05	-1941.29	  571.39
     10.7700	  726.00	  705.63	-1910.87	  569.94
     10.8700	  721.00	  705.61	-1915.85	  568.50
     10.9700	  691.00	  706.06	-1946.29	  567.08
     11.0700	  674.00	  707.02	-1964.25	  565.66
     11.1700	  719.00	  708.51	-1920.74	  564.25
     11.2700	  749.00	  710.54	-1892.78	  562.86
     11.3700	  743.00	  713.18	-1901.42	  561.47
     11.4700	  699.00	  716.53	-1948.76	  560.09
     11.5700	  736.00	  720.73	-1915.97	  558.73
     11.6700	  758.00	  726.04	-1899.28	  557.37
     11.7700	  756.00	  732.78	-1908.02	  556.03
     11.8700	  755.00	  741.24	-1917.48	  554.70
     11.9700	  787.00	  751.45	-1895.69	  553.37
     12.0700	  842.00	  762.72	-1851.96	  552.06
     12.1700	  864.00	  773.04	-1840.28	  550.75
     12.2700	  804.00	  778.54	-1905.78	  549.46
     12.3700	  868.00	  774.18	-1837.42	  548.18
     12.4700	  760.00	  758.36	-1929.60	  546.90
     12.5700	  676.00	  737.02	-1992.25	  545.64
     12.6700	  728.00	  717.38	-1920.62	  544.38
     12.7700	  660.00	  702.40	-1973.64	  543.14
     12.8700	  685.00	  691.98	-1938.22	  541.90
     12.9700	  673.00	  685.01	-1943.25	  540.68
     13.0700	  640.00	  680.23	-1971.47	  539.46
     13.1700	  613.00	  676.75	-1994.99	  538.26
     13.2700	  644.00	  674.01	-1961.24	  537.06
     13.3700	  686.00	  671.69	-1916.93	  535.88
     13.4700	  629.00	  669.66	-1971.90	  534.70
     13.5700	  624.00	  667.82	-1975.06	  533.53
     13.6700	  673.00	  666.12	-1924.36	  532.37
     13.7700	  611.00	  664.53	-1984.77	  531.22
     13.8700	  679.00	  663.03	-1915.27	  530.08
     13.9700	  681.00	  661.60	-1911.83	  528.95
     14.0700	  673.00	  660.22	-1918.46	  527.83
     14.1700	  675.00	  658.89	-1915.13	  526.72
     14.2700	  644.00	  657.60	-1944.84	  525.62
     14.3700	  637.00	  656.35	-1950.58	  524.52
     14.4700	  678.00	  655.12	-1908.36	  523.44
     14.5700	  654.00	  653.92	-1931.16	  522.36
     14.6700	  646.00	  652.75	-1937.98	  521.29
     14.7700	  611.00	  651.59	-1971.83	  520.23
     14.8700	  654.00	  650.46	-1927.70	  519.18
     14.9700	  661.00	  649.34	-1919.58	  518.14
     15.0700	  600.00	  648.24	-1979.48	  517.11
     15.1700	  634.00	  647.16	-1944.39	  516.09
     15.2700	  637.00	  646.09	-1940.32	  515.07
     15.3700	  634.00	  645.03	-1942.27	  514.07
     15.4700	  641.00	  643.99	-1934.23	  513.07
     15.5700	  639.00	  642.96	-1935.20	  512.08
     15.6700	  617.00	  641.94	-1956.18	  511.10
     15.7700	  603.00	  640.93	-1969.17	  510.13
     15.8700	  616.00	  639.94	-1955.17	  509.16
     15.9700	  641.00	  638.95	-1929.19	  508.21
     16.0700	  631.00	  637.98	-1938.22	  507.26
     16.1700	  669.00	  637.02	-1899.25	  506.32
     16.2700	  620.00	  636.06	-1947.30	  505.39
     16.3700	  622.00	  635.12	-1944.36	  504.46
     16.4700	  621.00	  634.19	-1944.42	  503.55
     16.5700	  598.00	  633.26	-1966.50	  502.64
     16.6700	  604.00	  632.35	-1959.58	  501.74
     16.7700	  604.00	  631.44	-1958.68	  500.85
     16.8700	  594.00	  630.54	-1967.78	  499.97
     16.9700	  626.00	  629.66	-1934.89	  499.10
     17.0700	  661.00	  628.78	-1899.01	  498.23
     17.1700	  576.00	  627.91	-1983.14	  497.37
     17.2700	  641.00	  627.04	-1917.28	  496.52
     17.3700	  637.00	  626.19	-1920.43	  495.67
     17.4700	  635.00	  625.35	-1921.58	  494.84
     17.5700	  595.00	  624.51	-1960.75	  494.01
     17.6700	  637.00	  623.68	-1917.92	  493.19
     17.7700	  639.00	  622.86	-1915.10	  492.38
     17.8700	  627.00	  622.05	-1926.29	  491.57
     17.9700	  671.00	  621.25	-1881.48	  490.77
     18.0700	  659.00	  620.45	-1892.69	  489.98
     18.1700	  636.00	  619.66	-1914.90	  489.20
     18.2700	  612.00	  618.88	-1938.12	  488.42
     18.3700	  634.00	  618.11	-1915.35	  487.65
     18.4700	  610.00	  617.34	-1938.58	  486.89
     18.5700	  646.00	  616.59	-1901.82	  486.14
     18.6700	  623.00	  615.84	-1924.07	  485.39
     18.7700	  595.00	  615.10	-1951.33	  484.65
     18.8700	  666.00	  615.91	-1881.14	  483.92
     18.9700	  657.00	  616.11	-1890.34	  483.19
     19.0700	  575.00	  615.44	-1971.68	  482.47
     19.1700	  667.00	  614.78	-1879.02	  481.76
     19.2700	  569.00	  614.13	-1976.37	  481.06
     19.3700	  619.00	  613.49	-1925.73	  480.36
     19.4700	  616.00	  612.86	-1928.10	  479.67
     19.5700	  611.00	  612.24	-1932.47	  478.98
     19.6700	  634.00	  611.63	-1908.86	  478.31
     19.7700	  603.00	  611.02	-1939.26	  477.63
     19.8700	  622.00	  610.43	-1919.66	  476.97
     19.9700	  602.00	  609.84	-1939.08	  476.31
     20.0700	  644.00	  609.27	-1896.51	  475.66
     20.1700	  637.00	  608.76	-1902.99	  475.02
     20.2700	  568.00	  608.20	-1971.44	  474.38
     20.3700	  617.00	  607.66	-1921.89	  473.75
     20.4700	  598.00	  607.12	-1940.36	  473.13
     20.5700	  639.00	  606.60	-1898.84	  472.51
     20.6700	  566.00	  606.09	-1971.32	  471.90
     20.7700	  603.00	  605.58	-1933.82	  471.29
     20.8700	  618.00	  605.09	-1918.33	  470.69
     20.9700	  596.00	  604.61	-1939.85	  470.10
     21.0700	  614.00	  604.14	-1921.38	  469.51
     21.1700	  633.00	  603.68	-1901.92	  468.93
     21.2700	  611.00	  603.24	-1923.47	  468.36
     21.3700	  559.00	  602.80	-1975.04	  467.79
     21.4700	  615.00	  602.38	-1918.62	  467.23
     21.5700	  613.00	  601.97	-1920.21	  466.67
     21.6700	  572.00	  601.58	-1960.82	  466.12
     21.7700	  609.00	  601.20	-1923.43	  465.58
     21.8700	  570.00	  600.83	-1962.07	  465.04
     21.9700	  633.00	  600.48	-1898.72	  464.51
     22.0700	  577.00	  600.15	-1954.38	  463.98
     22.1700	  593.00	  599.83	-1938.07	  463.46
     22.2700	  565.00	  599.53	-1965.77	  462.95
     22.3700	  646.00	  599.25	-1884.49	  462.44
     22.4700	  642.00	  599.18	-1888.42	  461.94
     22.5700	  632.00	  598.94	-1898.18	  461.44
     22.6700	  613.00	  598.73	-1916.97	  460.95
     22.7700	  607.00	  598.55	-1922.78	  460.47
     22.8700	  607.00	  598.39	-1922.63	  459.98
     22.9700	  623.00	  598.26	-1906.50	  459.51
     23.0700	  607.00	  598.17	-1922.41	  459.04
     23.1700	  634.00	  598.12	-1895.36	  458.58
     23.2700	  605.00	  598.11	-1924.35	  458.12
     23.3700	  635.00	  598.16	-1894.39	  457.67
     23.4700	  619.00	  598.26	-1910.50	  457.22
     23.5700	  601.00	  598.45	-1928.68	  456.78
     23.6700	  615.00	  598.72	-1914.96	  456.34
     23.7700	  598.00	  599.12	-1932.36	  455.91
     23.8700	  610.00	  599.70	-1920.93	  455.48
     23.9700	  630.00	  600.52	-1901.75	  455.06
     24.0700	  620.00	  601.67	-1912.91	  454.65
     24.1700	  580.00	  603.48	-1954.72	  454.24
     24.2700	  615.00	  606.21	-1922.45	  453.83
     24.3700	  600.00	  610.27	-1941.51	  453.43
     24.4700	  632.00	  616.09	-1915.33	  453.04
     24.5700	  609.00	  623.92	-1946.16	  452.64
     24.6700	  654.00	  633.59	-1910.83	  452.26
     24.7700	  693.00	  644.25	-1882.49	  451.88
     24.8700	  678.00	  653.94	-1907.18	  451.50
     24.9700	  707.00	  659.45	-1883.68	  451.13
     25.0700	  739.00	  657.50	-1849.74	  450.77
     25.1700	  687.00	  648.49	-1892.73	  450.41
     25.2700	  703.00	  637.03	-1865.26	  450.05
     25.3700	  674.00	  627.10	-1884.34	  449.70
     25.4700	  609.00	  620.15	-1942.39	  449.35
     25.5700	  641.00	  615.96	-1906.19	  449.01
     25.6700	  631.00	  613.92	-1914.16	  448.67
     25.7700	  682.00	  613.37	-1862.61	  448.34
     25.8700	  640.00	  613.81	-1905.05	  448.01
     25.9700	  625.00	  614.93	-1921.17	  447.69
     26.0700	  654.00	  616.59	-1893.83	  447.37
     26.1700	  597.00	  618.75	-1952.98	  447.05
     26.2700	  649.00	  621.41	-1903.65	  446.74
     26.3700	  628.00	  624.63	-1927.86	  446.44
     26.4700	  640.00	  628.47	-1919.70	  446.14
     26.5700	  596.00	  633.04	-1968.27	  445.84
     26.6700	  665.00	  638.48	-1904.71	  445.55
     26.7700	  672.00	  644.97	-1904.21	  445.26
     26.8700	  625.00	  652.77	-1959.01	  444.97
     26.9700	  637.00	  662.23	-1956.46	  444.69
     27.0700	  632.00	  673.79	-1973.03	  444.42
     27.1700	  654.00	  688.13	-1965.37	  444.15
     27.2700	  702.00	  706.23	-1935.47	  443.88
     27.3700	  679.00	  729.72	-1981.96	  443.62
     27.4700	  718.00	  761.76	-1975.00	  443.36
     27.5700	  770.00	  809.10	-1970.34	  443.10
     27.6700	  770.00	  886.15	-2047.39	  442.85
     27.7700	  870.00	 1020.89	-2082.13	  442.60
     27.8700	  966.00	 1260.98	-2226.22	  442.36
     27.9700	 1263.00	 1674.14	-2342.38	  442.12
     28.0700	 1880.00	 2331.00	-2382.24	  441.89
     28.1700	 2942.00	 3260.28	-2249.51	  441.65
     28.2700	 4723.00	 4372.60	-1580.84	  441.43
     28.3700	 6118.00	 5381.29	-1194.53	  441.20
     28.4700	 6643.00	 5816.09	-1104.33	  440.98
     28.5700	 5794.00	 5343.91	-1481.15	  440.77
     28.6700	 4251.00	 4326.14	-2006.37	  440.55
     28.7700	 3236.00	 3456.84	-2152.07	  440.35
     28.8700	 2729.00	 3069.07	-2271.31	  440.14
     28.9700	 3083.00	 3118.45	-1966.69	  439.94
     29.0700	 3608.00	 3343.42	-1666.66	  439.74
     29.1700	 3727.00	 3403.82	-1608.06	  439.55
     29.2700	 3210.00	 3067.18	-1788.42	  439.36
     29.3700	 2395.00	 2443.15	-1979.39	  439.17
     29.4700	 1688.00	 1820.02	-2063.26	  438.98
     29.5700	 1208.00	 1354.35	-2077.59	  438.80
     29.6700	 1038.00	 1063.14	-1956.38	  438.63
     29.7700	  835.00	  900.74	-1996.97	  438.45
     29.8700	  833.00	  813.05	-1911.28	  438.28
     29.9700	  747.00	  762.51	-1946.75	  438.12
     30.0700	  798.00	  729.79	-1863.03	  437.95
     30.1700	  717.00	  706.55	-1920.79	  437.79
     30.2700	  708.00	  689.42	-1912.65	  437.64
     30.3700	  664.00	  677.04	-1944.28	  437.48
     30.4700	  687.00	  669.15	-1913.39	  437.33
     30.5700	  645.00	  666.32	-1952.56	  437.19
     30.6700	  680.00	  669.84	-1921.08	  437.04
     30.7700	  639.00	  681.13	-1973.36	  436.90
     30.8700	  741.00	  700.38	-1890.61	  436.76
     30.9700	  719.00	  724.87	-1937.11	  436.63
     31.0700	  824.00	  747.70	-1854.94	  436.50
     31.1700	  740.00	  757.83	-1949.07	  436.37
     31.2700	  787.00	  745.51	-1889.75	  436.24
     31.3700	  659.00	  714.24	-1986.48	  436.12
     31.4700	  723.00	  678.67	-1886.91	  436.00
     31.5700	  704.00	  649.14	-1876.38	  435.88
     31.6700	  639.00	  628.53	-1920.76	  435.77
     31.7700	  682.00	  615.61	-1864.85	  435.66
     31.8700	  656.00	  607.90	-1883.14	  435.55
     31.9700	  622.00	  603.18	-1912.42	  435.44
     32.0700	  616.00	  600.05	-1915.29	  435.34
     32.1700	  615.00	  597.80	-1914.04	  435.24
     32.2700	  585.00	  596.12	-1942.36	  435.14
     32.3700	  660.00	  594.87	-1866.11	  435.05
     32.4700	  560.00	  593.98	-1965.22	  434.96
     32.5700	  566.00	  593.43	-1958.66	  434.87
     32.6700	  568.00	  593.20	-1956.44	  434.78
     32.7700	  620.00	  593.32	-1904.56	  434.70
     32.8700	  643.00	  593.82	-1882.05	  434.62
     32.9700	  610.00	  594.79	-1916.02	  434.54
     33.0700	  588.00	  596.27	-1939.51	  434.46
     33.1700	  637.00	  598.48	-1892.72	  434.39
     33.2700	  638.00	  601.72	-1894.96	  434.32
     33.3700	  610.00	  606.61	-1927.84	  434.25
     33.4700	  599.00	  614.36	-1946.59	  434.19
     33.5700	  631.00	  627.28	-1927.51	  434.12
     33.6700	  662.00	  649.27	-1918.51	  434.06
     33.7700	  698.00	  685.93	-1919.17	  434.00
     33.8700	  768.00	  743.30	-1906.53	  433.95
     33.9700	  815.00	  824.26	-1940.50	  433.89
     34.0700	  916.00	  923.19	-1938.42	  433.84
     34.1700	 1082.00	 1021.33	-1870.56	  433.79
     34.2700	 1183.00	 1086.22	-1834.46	  433.74
     34.3700	 1154.00	 1083.03	-1860.27	  433.70
     34.4700	 1026.00	 1007.69	-1912.93	  433.65
     34.5700	  948.00	  898.73	-1881.97	  433.61
     34.6700	  772.00	  796.19	-1955.42	  433.57
     34.7700	  780.00	  717.89	-1869.13	  433.54
     34.8700	  665.00	  665.66	-1931.90	  433.50
     34.9700	  647.00	  633.91	-1918.14	  433.47
     35.0700	  687.00	  615.46	-1859.70	  433.44
     35.1700	  632.00	  604.56	-1903.79	  433.41
     35.2700	  670.00	  597.62	-1858.86	  433.39
     35.3700	  651.00	  592.79	-1873.03	  433.36
     35.4700	  529.00	  589.19	-1991.43	  433.34
     35.5700	  585.00	  586.39	-1932.63	  433.32
     35.6700	  594.00	  584.16	-1921.40	  433.30
     35.7700	  560.00	  582.37	-1953.60	  433.29
     35.8700	  582.00	  580.91	-1930.15	  433.27
     35.9700	  602.00	  579.72	-1908.95	  433.26
     36.0700	  581.00	  578.75	-1928.98	  433.25
     36.1700	  592.00	  577.96	-1917.20	  433.24
     36.2700	  566.00	  577.34	-1942.58	  433.23
     36.3700	  603.00	  576.86	-1905.10	  433.23
     36.4700	  561.00	  576.52	-1946.75	  433.22
     36.5700	  574.00	  576.30	-1933.54	  433.22
     36.6700	  543.00	  576.22	-1964.46	  433.22
     36.7700	  555.00	  576.28	-1952.52	  433.22
     36.8700	  594.00	  576.50	-1913.74	  433.23
     36.9700	  592.00	  577.41	-1916.65	  433.23
     37.0700	  591.00	  578.09	-1918.33	  433.24
     37.1700	  589.00	  579.30	-1921.54	  433.25
     37.2700	  567.00	  580.89	-1945.13	  433.26
     37.3700	  597.00	  583.34	-1917.57	  433.27
     37.4700	  619.00	  587.14	-1899.38	  433.28
     37.5700	  578.00	  593.12	-1946.36	  433.30
     37.6700	  596.00	  602.41	-1937.65	  433.31
     37.7700	  621.00	  616.33	-1926.57	  433.33
     37.8700	  653.00	  635.93	-1914.16	  433.35
     37.9700	  644.00	  661.12	-1948.36	  433.37
     38.0700	  638.00	  689.74	-1982.98	  433.39
     38.1700	  693.00	  716.69	-1954.93	  433.41
     38.2700	  694.00	  732.51	-1969.75	  433.44
     38.3700	  700.00	  731.46	-1962.70	  433.46
     38.4700	  655.00	  710.57	-1986.81	  433.49
     38.5700	  636.00	  679.05	-1974.29	  433.52
     38.6700	  592.00	  647.70	-1986.94	  433.55
     38.7700	  612.00	  622.24	-1941.48	  433.58
     38.8700	  598.00	  604.06	-1937.30	  433.61
     38.9700	  559.00	  592.24	-1964.48	  433.65
     39.0700	  603.00	  585.00	-1913.24	  433.68
     39.1700	  600.00	  580.65	-1911.89	  433.72
     39.2700	  609.00	  577.94	-1900.18	  433.76
     39.3700	  608.00	  576.13	-1899.37	  433.80
     39.4700	  573.00	  574.84	-1933.07	  433.84
     39.5700	  612.00	  573.86	-1893.10	  433.88
     39.6700	  622.00	  572.27	-1881.50	  433.92
     39.7700	  582.00	  571.68	-1920.92	  433.96
     39.8700	  584.00	  571.22	-1918.46	  434.01
     39.9700	  576.00	  570.86	-1926.10	  434.05
     40.0700	  583.00	  570.58	-1918.82	  434.10
     40.1700	  544.00	  570.37	-1957.61	  434.15
     40.2700	  535.00	  570.21	-1966.45	  434.19
     40.3700	  535.00	  570.10	-1966.34	  434.24
     40.4700	  591.00	  570.04	-1910.27	  434.29
     40.5700	  559.00	  570.01	-1942.25	  434.35
     40.6700	  584.00	  570.03	-1917.26	  434.40
     40.7700	  603.00	  570.59	-1898.83	  434.45
     40.8700	  550.00	  570.68	-1951.92	  434.51
     40.9700	  559.00	  570.81	-1943.05	  434.56
     41.0700	  578.00	  570.98	-1924.22	  434.62
     41.1700	  589.00	  571.20	-1913.43	  434.67
     41.2700	  553.00	  571.46	-1949.70	  434.73
     41.3700	  575.00	  571.78	-1928.02	  434.79
     41.4700	  567.00	  572.22	-1936.46	  434.85
     41.5700	  553.00	  572.69	-1950.93	  434.91
     41.6700	  596.00	  573.27	-1908.51	  434.97
     41.7700	  564.00	  573.99	-1941.23	  435.03
     41.8700	  598.00	  574.91	-1908.15	  435.10
     41.9700	  565.00	  576.15	-1942.39	  435.16
     42.0700	  576.00	  577.92	-1933.15	  435.22
     42.1700	  553.00	  580.60	-1958.84	  435.29
     42.2700	  541.00	  584.84	-1975.08	  435.35
     42.3700	  589.00	  591.50	-1933.74	  435.42
     42.4700	  611.00	  601.76	-1921.99	  435.49
     42.5700	  625.00	  616.40	-1922.64	  435.55
     42.6700	  599.00	  635.46	-1967.70	  435.62
     42.7700	  607.00	  657.33	-1981.57	  435.69
     42.8700	  624.00	  677.95	-1985.19	  435.76
     42.9700	  675.00	  690.99	-1947.23	  435.83
     43.0700	  669.00	  690.60	-1952.84	  435.90
     43.1700	  645.00	  676.64	-1962.88	  435.97
     43.2700	  607.00	  655.32	-1979.55	  436.04
     43.3700	  621.00	  633.60	-1943.84	  436.11
     43.4700	  595.00	  615.09	-1951.33	  436.18
     43.5700	  582.00	  601.23	-1950.46	  436.26
     43.6700	  596.00	  591.76	-1927.00	  436.33
     43.7700	  613.00	  585.74	-1903.98	  436.40
     43.8700	  574.00	  582.26	-1939.50	  436.48
     43.9700	  568.00	  580.03	-1943.27	  436.55
     44.0700	  531.00	  578.63	-1978.87	  436.63
     44.1700	  583.00	  577.71	-1925.94	  436.70
     44.2700	  604.00	  577.07	-1904.30	  436.78
     44.3700	  615.00	  576.61	-1892.85	  436.85
     44.4700	  629.00	  576.29	-1878.52	  436.93
     44.5700	  558.00	  576.06	-1949.30	  437.01
     44.6700	  638.00	  575.92	-1869.16	  437.08
     44.7700	  600.00	  575.84	-1907.08	  437.16
     44.8700	  589.00	  575.82	-1918.06	  437.24
     44.9700	  607.00	  576.06	-1900.30	  437.32
     45.0700	  542.00	  576.13	-1965.37	  437.39
     45.1700	  581.00	  576.25	-1926.49	  437.47
     45.2700	  577.00	  576.39	-1930.62	  437.55
     45.3700	  524.00	  576.56	-1983.79	  437.63
     45.4700	  574.00	  576.75	-1933.99	  437.71
     45.5700	  552.00	  576.98	-1956.22	  437.79
     45.6700	  598.00	  577.24	-1910.48	  437.87
     45.7700	  548.00	  577.53	-1960.77	  437.95
     45.8700	  580.00	  577.93	-1929.17	  438.03
     45.9700	  590.00	  578.29	-1919.52	  438.11
     46.0700	  576.00	  578.67	-1933.91	  438.19
     46.1700	  587.00	  579.10	-1923.34	  438.27
     46.2700	  595.00	  579.57	-1915.81	  438.35
     46.3700	  574.00	  579.90	-1937.14	  438.43
     46.4700	  579.00	  580.47	-1932.71	  438.51
     46.5700	  611.00	  581.22	-1901.45	  438.59
     46.6700	  607.00	  581.93	-1906.16	  438.67
     46.7700	  615.00	  582.72	-1898.96	  438.75
     46.8700	  571.00	  583.63	-1943.86	  438.83
     46.9700	  616.00	  584.68	-1899.91	  438.91
     47.0700	  623.00	  585.93	-1894.17	  438.99
     47.1700	  593.00	  587.49	-1925.72	  439.07
     47.2700	  620.00	  589.54	-1900.78	  439.15
     47.3700	  572.00	  592.40	-1951.63	  439.23
     47.4700	  641.00	  596.54	-1886.78	  439.31
     47.5700	  583.00	  602.59	-1950.82	  439.39
     47.6700	  600.00	  611.22	-1942.45	  439.48
     47.7700	  657.00	  622.92	-1897.16	  439.56
     47.8700	  595.00	  637.67	-1973.91	  439.64
     47.9700	  664.00	  654.50	-1921.73	  439.72
     48.0700	  734.00	  671.03	-1868.26	  439.80
     48.1700	  631.00	  683.35	-1983.58	  439.88
     48.2700	  665.00	  687.41	-1953.64	  439.96
     48.3700	  642.00	  682.00	-1971.23	  440.04
     48.4700	  647.00	  670.10	-1954.34	  440.11
     48.5700	  645.00	  656.69	-1942.93	  440.19
     48.6700	  634.00	  644.28	-1941.52	  440.27
     48.7700	  621.00	  634.94	-1945.18	  440.35
     48.8700	  606.00	  629.19	-1954.42	  440.43
     48.9700	  599.00	  626.82	-1959.06	  440.51
     49.0700	  575.00	  627.38	-1983.61	  440.59
     49.1700	  592.00	  630.38	-1969.62	  440.67
     49.2700	  601.00	  635.61	-1965.84	  440.74
     49.3700	  616.00	  643.21	-1958.45	  440.82
     49.4700	  653.00	  654.07	-1932.30	  440.90
     49.5700	  674.00	  670.44	-1927.68	  440.98
     49.6700	  697.00	  697.43	-1931.67	  441.05
     49.7700	  708.00	  745.13	-1968.37	  441.13
     49.8700	  843.00	  830.82	-1919.06	  441.20
     49.9700	 1002.00	  978.90	-1908.14	  441.28
     50.0700	 1310.00	 1215.40	-1836.63	  441.36
     50.1700	 1665.00	 1554.94	-1821.18	  441.43
     50.2700	 2037.00	 1982.73	-1876.96	  441.51
     50.3700	 2558.00	 2438.03	-1811.26	  441.58
     50.4700	 2855.00	 2809.20	-1885.44	  441.65
     50.5700	 2942.00	 2962.48	-1951.72	  441.73
     50.6700	 2761.00	 2826.16	-1996.40	  441.80
     50.7700	 2419.00	 2462.08	-1974.31	  441.87
     50.8700	 1883.00	 2008.51	-2056.75	  441.95
     50.9700	 1489.00	 1582.20	-2024.44	  442.02
     51.0700	 1164.00	 1246.24	-2013.48	  442.09
     51.1700	  940.00	 1015.62	-2006.86	  442.16
     51.2700	  946.00	  875.57	-1860.80	  442.23
     51.3700	  777.00	  798.27	-1952.51	  442.30
     51.4700	  799.00	  756.99	-1889.23	  442.37
     51.5700	  733.00	  732.31	-1930.54	  442.44
     51.6700	  734.00	  713.79	-1911.02	  442.51
     51.7700	  692.00	  697.90	-1937.13	  442.58
     51.8700	  707.00	  684.40	-1908.64	  442.65
     51.9700	  660.00	  673.74	-1944.98	  442.72
     52.0700	  709.00	  665.96	-1888.20	  442.78
     52.1700	  649.00	  660.57	-1942.81	  442.85
     52.2700	  674.00	  656.68	-1913.92	  442.92
     52.3700	  680.00	  653.43	-1904.66	  442.98
     52.4700	  681.00	  650.58	-1900.82	  443.05
     52.5700	  650.00	  648.61	-1929.84	  443.11
     52.6700	  684.00	  648.26	-1895.49	  443.18
     52.7700	  683.00	  650.42	-1898.65	  443.24
     52.8700	  623.00	  656.23	-1964.46	  443.30
     52.9700	  691.00	  667.36	-1907.60	  443.36
     53.0700	  678.00	  686.22	-1939.46	  443.43
     53.1700	  756.00	  715.94	-1891.17	  443.49
     53.2700	  755.00	  759.97	-1936.20	  443.55
     53.3700	  806.00	  821.12	-1946.36	  443.61
     53.4700	  914.00	  900.21	-1917.44	  443.67
     53.5700	  970.00	  994.18	-1955.41	  443.72
     53.6700	 1128.00	 1094.20	-1897.43	  443.78
     53.7700	 1242.00	 1183.88	-1873.11	  443.84
     53.8700	 1302.00	 1240.17	-1869.41	  443.90
     53.9700	 1282.00	 1243.61	-1892.84	  443.95
     54.0700	 1286.00	 1192.61	-1837.85	  444.01
     54.1700	 1165.00	 1105.46	-1871.70	  444.06
     54.2700	 1032.00	 1005.83	-1905.07	  444.12
     54.3700	  927.00	  911.22	-1915.45	  444.17
     54.4700	  828.00	  831.06	-1934.30	  444.22
     54.5700	  717.00	  768.79	-1983.02	  444.28
     54.6700	  734.00	  723.81	-1921.05	  444.33
     54.7700	  699.00	  693.33	-1925.56	  444.38
     54.8700	  657.00	  673.75	-1947.99	  444.43
     54.9700	  658.00	  661.73	-1934.97	  444.48
     55.0700	  659.00	  654.67	-1926.91	  444.52
     55.1700	  652.00	  650.82	-1930.05	  444.57
     55.2700	  593.00	  649.10	-1987.33	  444.62
     55.3700	  565.00	  648.93	-2015.17	  444.67
     55.4700	  626.00	  650.05	-1955.28	  444.71
     55.5700	  628.00	  652.35	-1955.59	  444.76
     55.6700	  642.00	  655.88	-1945.11	  444.80
     55.7700	  684.00	  660.77	-1908.01	  444.84
     55.8700	  688.00	  667.35	-1910.59	  444.89
     55.9700	  646.00	  676.22	-1961.46	  444.93
     56.0700	  687.00	  688.54	-1932.78	  444.97
     56.1700	  653.00	  706.51	-1984.75	  445.01
     56.2700	  760.00	  734.05	-1905.29	  445.05
     56.3700	  763.00	  777.65	-1945.89	  445.09
     56.4700	  829.00	  846.87	-1949.11	  445.12
     56.5700	  956.00	  953.95	-1929.19	  445.16
     56.6700	 1025.00	 1111.82	-2018.05	  445.20
     56.7700	 1334.00	 1329.71	-1926.95	  445.23
     56.8700	 1680.00	 1607.76	-1859.00	  445.27
     56.9700	 2061.00	 1930.62	-1800.86	  445.30
     57.0700	 2328.00	 2261.70	-1864.93	  445.33
     57.1700	 2646.00	 2540.32	-1825.55	  445.37
     57.2700	 2678.00	 2691.31	-1944.55	  445.40
     57.3700	 2650.00	 2661.72	-1942.96	  445.43
     57.4700	 2417.00	 2462.43	-1976.67	  445.46
     57.5700	 2157.00	 2159.62	-1933.86	  445.49
     57.6700	 1786.00	 1827.34	-1972.57	  445.51
     57.7700	 1427.00	 1518.80	-2023.04	  445.54
     57.8700	 1126.00	 1262.96	-2068.20	  445.57
     57.9700	  978.00	 1069.53	-2022.77	  445.59
     58.0700	  926.00	  935.14	-1940.37	  445.62
     58.1700	  826.00	  849.53	-1954.76	  445.64
     58.2700	  796.00	  801.37	-1936.61	  445.66
     58.3700	  784.00	  781.40	-1928.64	  445.68
     58.4700	  764.00	  784.48	-1951.71	  445.70
     58.5700	  796.00	  808.72	-1943.96	  445.72
     58.6700	  857.00	  853.90	-1928.14	  445.74
     58.7700	  866.00	  919.39	-1984.63	  445.76
     58.8700	  961.00	 1002.01	-1972.25	  445.78
     58.9700	 1113.00	 1094.41	-1912.65	  445.79
     59.0700	 1204.00	 1184.63	-1911.87	  445.81
     59.1700	 1251.00	 1259.29	-1939.53	  445.82
     59.2700	 1273.00	 1310.26	-1968.50	  445.84
     59.3700	 1336.00	 1336.71	-1931.95	  445.85
     59.4700	 1287.00	 1339.14	-1983.38	  445.86
     59.5700	 1275.00	 1317.42	-1973.65	  445.87
     59.6700	 1257.00	 1276.71	-1950.94	  445.88
     59.7700	 1297.00	 1229.82	-1864.06	  445.89
     59.8700	 1251.00	 1190.82	-1871.05	  445.90
     59.9700	 1277.00	 1169.89	-1824.12	  445.91
     60.0700	 1257.00	 1173.76	-1848.00	  445.91
     60.1700	 1343.00	 1207.64	-1795.88	  445.92
     60.2700	 1365.00	 1273.78	-1840.01	  445.92
     60.3700	 1422.00	 1367.23	-1876.47	  445.92
     60.4700	 1529.00	 1472.96	-1875.20	  445.93
     60.5700	 1569.00	 1565.35	-1927.59	  445.93
     60.6700	 1518.00	 1612.77	-2026.01	  445.93
     60.7700	 1508.00	 1591.26	-2014.50	  445.93
     60.8700	 1461.00	 1501.04	-1971.28	  445.92
     60.9700	 1321.00	 1365.68	-1975.92	  445.92
     61.0700	 1218.00	 1215.12	-1928.35	  445.92
     61.1700	 1016.00	 1072.98	-1988.22	  445.91
     61.2700	  865.00	  953.73	-2019.97	  445.91
     61.3700	  882.00	  863.74	-1912.98	  445.90
     61.4700	  769.00	  803.50	-1965.73	  445.89
     61.5700	  804.00	  770.49	-1897.72	  445.89
     61.6700	  794.00	  761.91	-1899.15	  445.88
     61.7700	  790.00	  776.61	-1917.85	  445.87
     61.8700	  862.00	  815.67	-1884.91	  445.85
     61.9700	  904.00	  881.58	-1908.82	  445.84
     62.0700	  969.00	  976.41	-1938.65	  445.83
     62.1700	 1140.00	 1099.20	-1890.44	  445.81
     62.2700	 1291.00	 1243.42	-1883.66	  445.80
     62.3700	 1478.00	 1394.98	-1848.22	  445.78
     62.4700	 1490.00	 1531.05	-1972.29	  445.76
     62.5700	 1587.00	 1622.15	-1966.38	  445.75
     62.6700	 1622.00	 1641.96	-1951.20	  445.73
     62.7700	 1500.00	 1583.55	-2014.78	  445.71
     62.8700	 1511.00	 1464.83	-1885.07	  445.68
     62.9700	 1264.00	 1315.57	-1982.81	  445.66
     63.0700	 1117.00	 1162.71	-1976.95	  445.64
     63.1700	  954.00	 1024.64	-2001.88	  445.61
     63.2700	  889.00	  911.26	-1953.50	  445.59
     63.3700	  856.00	  825.46	-1900.70	  445.56
     63.4700	  730.00	  765.21	-1966.44	  445.53
     63.5700	  717.00	  725.86	-1940.10	  445.50
     63.6700	  692.00	  702.06	-1941.29	  445.47
     63.7700	  694.00	  689.39	-1926.62	  445.44
     63.8700	  691.00	  684.77	-1925.00	  445.41
     63.9700	  718.00	  686.78	-1900.02	  445.38
     64.0700	  692.00	  695.50	-1934.74	  445.35
     64.1700	  724.00	  712.30	-1919.54	  445.31
     64.2700	  715.00	  739.57	-1955.81	  445.28
     64.3700	  810.00	  779.81	-1901.05	  445.24
     64.4700	  838.00	  836.87	-1930.11	  445.20
     64.5700	  950.00	  912.21	-1893.44	  445.16
     64.6700	 1063.00	 1005.66	-1873.90	  445.12
     64.7700	 1094.00	 1113.65	-1950.89	  445.08
     64.8700	 1227.00	 1228.03	-1932.27	  445.04
     64.9700	 1376.00	 1335.63	-1890.87	  445.00
     65.0700	 1339.00	 1420.04	-2012.28	  444.95
     65.1700	 1410.00	 1466.05	-1987.29	  444.91
     65.2700	 1439.00	 1464.60	-1956.84	  444.86
     65.3700	 1394.00	 1416.37	-1953.61	  444.81
     65.4700	 1289.00	 1331.81	-1974.05	  444.77
     65.5700	 1202.00	 1227.86	-1957.10	  444.72
     65.6700	 1068.00	 1120.43	-1983.67	  444.67
     65.7700	  974.00	 1020.73	-1977.96	  444.62
     65.8700	  834.00	  934.25	-2031.48	  444.56
     65.9700	  840.00	  863.07	-1954.31	  444.51
     66.0700	  841.00	  806.94	-1897.18	  444.46
     66.1700	  677.00	  764.31	-2018.55	  444.40
     66.2700	  711.00	  732.99	-1953.22	  444.35
     66.3700	  685.00	  710.57	-1956.81	  444.29
     66.4700	  684.00	  694.91	-1942.14	  444.23
     66.5700	  655.00	  684.37	-1960.61	  444.17
     66.6700	  669.00	  677.62	-1939.85	  444.11
     66.7700	  649.00	  673.94	-1956.18	  444.05
     66.8700	  657.00	  672.90	-1947.14	  443.99
     66.9700	  691.00	  674.32	-1914.56	  443.92
     67.0700	  682.00	  678.36	-1927.60	  443.86
     67.1700	  679.00	  685.64	-1937.87	  443.79
     67.2700	  698.00	  697.48	-1930.72	  443.73
     67.3700	  729.00	  716.04	-1918.28	  443.66
     67.4700	  744.00	  744.65	-1931.88	  443.59
     67.5700	  798.00	  788.32	-1921.55	  443.52
     67.6700	  832.00	  853.35	-1952.59	  443.45
     67.7700	  958.00	  946.85	-1920.08	  443.38
     67.8700	 1071.00	 1075.51	-1935.75	  443.31
     67.9700	 1265.00	 1243.69	-1909.93	  443.23
     68.0700	 1472.00	 1451.23	-1910.46	  443.16
     68.1700	 1765.00	 1691.08	-1857.32	  443.08
     68.2700	 1968.00	 1947.31	-1910.55	  443.01
     68.3700	 2230.00	 2194.06	-1895.30	  442.93
     68.4700	 2386.00	 2395.28	-1940.52	  442.85
     68.5700	 2484.00	 2510.99	-1958.23	  442.77
     68.6700	 2439.00	 2512.41	-2004.65	  442.69
     68.7700	 2427.00	 2399.11	-1903.34	  442.61
     68.8700	 2212.00	 2199.18	-1918.41	  442.53
     68.9700	 1869.00	 1952.75	-2014.98	  442.45
     69.0700	 1728.00	 1695.96	-1899.19	  442.36
     69.1700	 1413.00	 1455.15	-1973.39	  442.28
     69.2700	 1287.00	 1246.39	-1890.62	  442.19
     69.3700	 1094.00	 1076.80	-1914.04	  442.10
     69.4700	  997.00	  946.81	-1881.05	  442.01
     69.5700	  908.00	  852.06	-1875.30	  441.92
     69.6700	  851.00	  785.92	-1866.15	  441.83
     69.7700	  830.00	  741.22	-1842.46	  441.74
     69.8700	  776.00	  711.60	-1866.84	  441.65
     69.9700	  769.00	  692.05	-1854.29	  441.56
     70.0700	  727.00	  679.00	-1883.24	  441.46
     70.1700	  759.00	  670.10	-1842.34	  441.37
     70.2700	  713.00	  663.91	-1882.15	  441.27
     70.3700	  704.00	  659.60	-1886.84	  441.18
     70.4700	  700.00	  656.69	-1887.93	  441.08
     70.5700	  719.00	  654.96	-1867.20	  440.98
     70.6700	  650.00	  654.31	-1935.55	  440.88
     70.7700	  711.00	  654.59	-1874.83	  440.78
     70.8700	  666.00	  656.33	-1921.57	  440.68
     70.9700	  657.00	  659.69	-1933.93	  440.57
     71.0700	  718.00	  665.26	-1878.50	  440.47
     71.1700	  714.00	  674.08	-1891.31	  440.37
     71.2700	  689.00	  687.71	-1929.94	  440.26
     71.3700	  644.00	  708.46	-1995.69	  440.16
     71.4700	  772.00	  739.42	-1898.66	  440.05
     71.5700	  820.00	  784.45	-1895.69	  439.94
     71.6700	  837.00	  847.72	-1941.96	  439.83
     71.7700	  995.00	  933.16	-1869.39	  439.72
     71.8700	 1093.00	 1043.49	-1881.73	  439.61
     71.9700	 1245.00	 1179.01	-1865.24	  439.50
     72.0700	 1349.00	 1336.53	-1918.76	  439.39
     72.1700	 1553.00	 1508.24	-1886.48	  439.27
     72.2700	 1650.00	 1681.00	-1962.24	  439.16
     72.3700	 1833.00	 1836.02	-1934.26	  439.04
     72.4700	 1960.00	 1950.06	-1921.30	  438.93
     72.5700	 1939.00	 2001.00	-1993.23	  438.81
     72.6700	 1846.00	 1977.15	-2062.39	  438.69
     72.7700	 1786.00	 1884.81	-2030.05	  438.57
     72.8700	 1660.00	 1741.86	-2013.10	  438.45
     72.9700	 1607.00	 1572.80	-1897.04	  438.33
     73.0700	 1390.00	 1398.34	-1939.58	  438.21
     73.1700	 1247.00	 1233.71	-1917.95	  438.09
     73.2700	 1041.00	 1088.56	-1978.80	  437.96
     73.3700	  990.00	  967.61	-1908.85	  437.84
     73.4700	  849.00	  871.75	-1953.98	  437.71
     73.5700	  800.00	  799.02	-1930.25	  437.59
     73.6700	  767.00	  745.91	-1910.14	  437.46
     73.7700	  736.00	  708.30	-1903.54	  437.33
     73.8700	  688.00	  682.26	-1925.50	  437.21
     73.9700	  689.00	  663.97	-1906.21	  437.08
     74.0700	  725.00	  651.93	-1858.17	  436.95
     74.1700	  642.00	  643.86	-1933.10	  436.82
     74.2700	  656.00	  638.62	-1913.85	  436.68
     74.3700	  622.00	  635.47	-1944.71	  436.55
     74.4700	  624.00	  633.99	-1941.22	  436.42
     74.5700	  666.00	  633.84	-1899.08	  436.28
     74.6700	  716.00	  634.78	-1850.02	  436.15
     74.7700	  622.00	  636.50	-1945.74	  436.01
     74.8700	  654.00	  638.66	-1915.89	  435.88
     74.9700	  672.00	  640.79	-1900.02	  435.74
     75.0700	  675.00	  642.32	-1898.55	  435.60
     75.1700	  623.00	  642.87	-1951.11	  435.46
     75.2700	  681.00	  642.12	-1892.35	  435.32
     75.3700	  682.00	  640.13	-1889.37	  435.18
     75.4700	  694.00	  637.38	-1874.62	  435.04
     75.5700	  664.00	  634.53	-1901.76	  434.90
     75.6700	  642.00	  632.31	-1921.55	  434.76
     75.7700	  705.00	  631.49	-1857.73	  434.61
     75.8700	  653.00	  632.79	-1911.03	  434.47
     75.9700	  657.00	  637.21	-1911.45	  434.32
     76.0700	  669.00	  645.56	-1907.80	  434.18
     76.1700	  667.00	  658.72	-1922.96	  434.03
     76.2700	  689.00	  677.47	-1919.71	  433.88
     76.3700	  707.00	  702.33	-1926.57	  433.74
     76.4700	  769.00	  733.36	-1895.60	  433.59
     76.5700	  757.00	  769.97	-1944.20	  433.44
     76.6700	  721.00	  810.75	-2020.99	  433.29
     76.7700	  800.00	  853.33	-1984.57	  433.14
     76.8700	  869.00	  894.25	-1956.49	  432.99
     76.9700	  899.00	  929.00	-1961.24	  432.83
     77.0700	  931.00	  952.57	-1952.81	  432.68
     77.1700	  928.00	  960.70	-1963.94	  432.53
     77.2700	  943.00	  951.68	-1939.92	  432.37
     77.3700	  942.00	  927.21	-1916.45	  432.22
     77.4700	  905.00	  891.53	-1917.77	  432.06
     77.5700	  862.00	  849.65	-1918.88	  431.91
     77.6700	  788.00	  805.83	-1949.06	  431.75
     77.7700	  771.00	  763.86	-1924.10	  431.59
     77.8700	  723.00	  725.89	-1934.12	  431.44
     77.9700	  713.00	  693.24	-1911.48	  431.28
     78.0700	  661.00	  666.42	-1936.66	  431.12
     78.1700	  635.00	  645.26	-1941.50	  430.96
     78.2700	  641.00	  629.18	-1919.41	  430.80
     78.3700	  623.00	  617.33	-1925.57	  430.64
     78.4700	  547.00	  608.83	-1993.06	  430.47
     78.5700	  642.00	  602.79	-1892.03	  430.31
     78.6700	  608.00	  598.62	-1921.86	  430.15
     78.7700	  628.00	  595.74	-1898.98	  429.99
     78.8700	  601.00	  593.75	-1923.99	  429.82
     78.9700	  621.00	  592.38	-1902.62	  429.66
     79.0700	  561.00	  591.48	-1961.72	  429.49
     79.1700	  629.00	  590.94	-1893.18	  429.33
     79.2700	  564.00	  590.72	-1957.96	  429.16
     79.3700	  579.00	  590.80	-1943.04	  428.99
     79.4700	  600.00	  591.20	-1922.43	  428.82
     79.5700	  555.00	  591.94	-1968.18	  428.66
     79.6700	  589.00	  593.10	-1935.34	  428.49
     79.7700	  623.00	  594.75	-1902.99	  428.32
     79.8700	  604.00	  597.04	-1924.27	  428.15
     79.9700	  558.00	  600.15	-1973.39	  427.98
     80.0700	  600.00	  604.41	-1935.65	  427.81
     80.1700	  569.00	  610.27	-1972.51	  427.64
     80.2700	  639.00	  618.39	-1910.62	  427.47
     80.3700	  623.00	  629.66	-1937.90	  427.29
     80.4700	  628.00	  645.02	-1948.25	  427.12
     80.5700	  710.00	  666.25	-1887.48	  426.95
     80.6700	  712.00	  694.61	-1913.85	  426.77
     80.7700	  772.00	  731.55	-1890.79	  426.60
     80.8700	  812.00	  778.19	-1897.42	  426.43
     80.9700	  886.00	  835.00	-1880.24	  426.25
     81.0700	  934.00	  901.43	-1898.66	  426.08
     81.1700	 1011.00	  975.57	-1895.80	  425.90
     81.2700	 1106.00	 1053.94	-1879.17	  425.72
     81.3700	 1157.00	 1131.46	-1905.70	  425.55
     81.4700	 1221.00	 1201.81	-1912.04	  425.37
     81.5700	 1251.00	 1258.39	-1938.62	  425.19
     81.6700	 1332.00	 1295.85	-1895.09	  425.01
     81.7700	 1342.00	 1311.32	-1900.56	  424.84
     81.8700	 1316.00	 1304.62	-1919.85	  424.66
     81.9700	 1239.00	 1277.68	-1969.92	  424.48
     82.0700	 1253.00	 1234.15	-1912.39	  424.30
     82.1700	 1120.00	 1178.78	-1990.02	  424.12
     82.2700	 1075.00	 1116.58	-1972.82	  423.94
     82.3700	 1054.00	 1052.07	-1929.31	  423.76
     82.4700	 1003.00	  988.90	-1917.14	  423.58
     82.5700	  957.00	  929.84	-1904.08	  423.40
     82.6700	  866.00	  876.68	-1941.91	  423.22
     82.7700	  838.00	  830.19	-1923.42	  423.03
     82.8700	  764.00	  790.22	-1957.45	  422.85
     82.9700	  718.00	  756.02	-1969.26	  422.67
     83.0700	  673.00	  726.73	-1984.96	  422.49
     83.1700	  704.00	  701.61	-1928.85	  422.30
     83.2700	  662.00	  680.25	-1949.49	  422.12
     83.3700	  633.00	  662.41	-1960.65	  421.94
     83.4700	  624.00	  647.98	-1955.22	  421.75
     83.5700	  580.00	  636.86	-1988.10	  421.57
     83.6700	  622.00	  628.97	-1938.21	  421.38
     83.7700	  603.00	  624.18	-1952.42	  421.20
     83.8700	  637.00	  622.30	-1916.53	  421.02
     83.9700	  614.00	  623.02	-1940.25	  420.83
     84.0700	  607.00	  625.91	-1950.15	  420.64
     84.1700	  645.00	  630.32	-1916.55	  420.46
     84.2700	  616.00	  635.76	-1951.00	  420.27
     84.3700	  630.00	  641.25	-1942.49	  420.09
     84.4700	  632.00	  646.08	-1945.32	  419.90
     84.5700	  604.00	  649.28	-1976.52	  419.72
     84.6700	  635.00	  650.13	-1946.37	  419.53
     84.7700	  658.00	  648.28	-1921.51	  419.34
     84.8700	  628.00	  643.84	-1947.08	  419.16
     84.9700	  636.00	  637.35	-1932.59	  418.97
     85.0700	  637.00	  629.54	-1923.78	  418.78
     85.1700	  581.00	  621.16	-1971.39	  418.59
     85.2700	  603.00	  612.86	-1941.10	  418.41
     85.3700	  606.00	  605.18	-1930.41	  418.22
     85.4700	  585.00	  598.51	-1944.75	  418.03
     85.5700	  614.00	  593.14	-1910.38	  417.84
     85.6700	  609.00	  589.24	-1911.48	  417.66
     85.7700	  586.00	  586.89	-1932.12	  417.47
     85.8700	  590.00	  586.12	-1927.36	  417.28
     85.9700	  576.00	  586.95	-1942.19	  417.09
     86.0700	  604.00	  589.36	-1916.59	  416.90
     86.1700	  634.00	  593.30	-1890.54	  416.72
     86.2700	  589.00	  598.73	-1940.97	  416.53
     86.3700	  596.00	  605.54	-1940.78	  416.34
     86.4700	  610.00	  613.58	-1934.82	  416.15
     86.5700	  569.00	  622.62	-1984.86	  415.96
     86.6700	  591.00	  632.39	-1972.63	  415.77
     86.7700	  630.00	  642.51	-1943.75	  415.59
     86.8700	  653.00	  652.54	-1930.78	  415.40
     86.9700	  679.00	  662.04	-1914.27	  415.21
     87.0700	  704.00	  670.65	-1897.89	  415.02
     87.1700	  683.00	  678.26	-1926.50	  414.83
     87.2700	  647.00	  685.06	-1969.29	  414.64
     87.3700	  667.00	  691.40	-1955.64	  414.45
     87.4700	  700.00	  697.70	-1928.93	  414.27
     87.5700	  691.00	  704.20	-1944.44	  414.08
     87.6700	  682.00	  710.91	-1960.15	  413.89
     87.7700	  734.00	  717.53	-1914.77	  413.70
     87.8700	  733.00	  723.47	-1921.71	  413.51
     87.9700	  676.00	  727.88	-1983.11	  413.33
     88.0700	  725.00	  729.81	-1936.05	  413.14
     88.1700	  694.00	  728.48	-1965.72	  412.95
     88.2700	  742.00	  723.53	-1912.76	  412.76
     88.3700	  676.00	  715.14	-1970.38	  412.58
     88.4700	  706.00	  704.01	-1929.25	  412.39
     88.5700	  677.00	  691.07	-1945.31	  412.20
     88.6700	  678.00	  677.30	-1930.54	  412.01
     88.7700	  679.00	  663.18	-1915.42	  411.83
     88.8700	  647.00	  650.35	-1934.58	  411.64
     88.9700	  601.00	  638.99	-1969.23	  411.45
     89.0700	  660.00	  629.58	-1900.81	  411.27
     89.1700	  616.00	  622.36	-1937.59	  411.08
     89.2700	  680.00	  617.43	-1868.66	  410.90
     89.3700	  654.00	  614.70	-1891.94	  410.71
     89.4700	  626.00	  613.96	-1919.19	  410.53
     89.5700	  630.00	  614.83	-1916.07	  410.34
     89.6700	  626.00	  616.87	-1922.11	  410.15
     89.7700	  580.00	  619.53	-1970.77	  409.97
     89.8700	  626.00	  622.22	-1927.46	  409.79
     89.9700	  558.00	  624.35	-1997.58	  409.60
     90.0700	  691.00	  625.36	-1865.59	  409.42
     90.1700	  623.00	  624.87	-1933.11	  409.23
     90.2700	  683.00	  622.75	-1870.99	  409.05
     90.3700	  672.00	  619.13	-1878.36	  408.87
     90.4700	  614.00	  614.31	-1931.55	  408.68
     90.5700	  612.00	  608.71	-1927.95	  408.50
     90.6700	  615.00	  602.75	-1918.99	  408.32
     90.7700	  609.00	  596.78	-1919.01	  408.14
     90.8700	  610.00	  591.09	-1912.33	  407.96
     90.9700	  619.00	  585.91	-1898.15	  407.78
     91.0700	  615.00	  581.38	-1897.62	  407.60
     91.1700	  594.00	  577.58	-1914.81	  407.41
     91.2700	  582.00	  574.52	-1923.76	  407.23
     91.3700	  567.00	  572.19	-1936.42	  407.06
     91.4700	  546.00	  570.53	-1955.76	  406.88
     91.5700	  586.00	  569.48	-1914.72	  406.70
     91.6700	  647.00	  569.00	-1853.24	  406.52
     91.7700	  545.00	  569.04	-1955.27	  406.34
     91.8700	  571.00	  569.59	-1929.82	  406.16
     91.9700	  610.00	  570.68	-1891.91	  405.99
     92.0700	  596.00	  572.37	-1907.60	  405.81
     92.1700	  605.00	  574.77	-1901.01	  405.63
     92.2700	  583.00	  578.04	-1926.28	  405.46
     92.3700	  613.00	  582.37	-1900.61	  405.28
     92.4700	  613.00	  587.97	-1906.21	  405.11
     92.5700	  581.00	  595.09	-1945.32	  404.94
     92.6700	  582.00	  603.94	-1953.18	  404.76
     92.7700	  585.00	  614.75	-1960.99	  404.59
     92.8700	  624.00	  627.67	-1934.91	  404.42
     92.9700	  608.00	  642.77	-1966.01	  404.24
     93.0700	  629.00	  660.01	-1962.25	  404.07
     93.1700	  643.00	  679.22	-1967.46	  403.90
     93.2700	  680.00	  700.10	-1951.34	  403.73
     93.3700	  695.00	  722.17	-1958.41	  403.56
     93.4700	  657.00	  744.79	-2019.02	  403.39
     93.5700	  692.00	  767.15	-2006.39	  403.22
     93.6700	  759.00	  788.40	-1960.64	  403.06
     93.7700	  779.00	  807.70	-1959.94	  402.89
     93.8700	  786.00	  824.50	-1969.73	  402.72
     93.9700	  789.00	  838.63	-1980.86	  402.56
     94.0700	  815.00	  850.41	-1966.65	  402.39
     94.1700	  828.00	  860.51	-1963.75	  402.23
     94.2700	  868.00	  869.39	-1932.63	  402.06
     94.3700	  876.00	  878.31	-1933.55	  401.90
     94.4700	  853.00	  887.48	-1965.71	  401.74
     94.5700	  936.00	  897.24	-1892.47	  401.57
     94.6700	  887.00	  907.88	-1952.11	  401.41
     94.7700	  926.00	  919.66	-1924.90	  401.25
     94.8700	  954.00	  932.84	-1910.07	  401.09
     94.9700	  946.00	  947.49	-1932.72	  400.93
     95.0700	  953.00	  963.37	-1941.61	  400.78
     95.1700	  912.00	  979.81	-1999.05	  400.62
     95.2700	 1019.00	  995.60	-1907.84	  400.46
     95.3700	 1013.00	 1009.15	-1927.38	  400.30
     95.4700	  986.00	 1018.58	-1963.81	  400.15
     95.5700	  940.00	 1022.07	-2013.31	  400.00
     95.6700	 1020.00	 1018.23	-1929.47	  399.84
     95.7700	 1060.00	 1006.45	-1877.68	  399.69
     95.8700	 1025.00	  987.15	-1893.39	  399.54
     95.9700	  963.00	  961.68	-1929.92	  399.39
     96.0700	  931.00	  931.96	-1932.20	  399.24
     96.1700	  868.00	  900.20	-1963.43	  399.09
     96.2700	  891.00	  868.63	-1908.87	  398.94
     96.3700	  871.00	  839.40	-1899.64	  398.79
     96.4700	  840.00	  814.43	-1905.67	  398.64
     96.5700	  808.00	  795.42	-1918.65	  398.50
     96.6700	  764.00	  783.79	-1951.02	  398.35
     96.7700	  795.00	  780.72	-1916.96	  398.21
     96.8700	  845.00	  787.15	-1873.39	  398.06
     96.9700	  818.00	  803.74	-1916.98	  397.92
     97.0700	  860.00	  830.92	-1902.15	  397.78
     97.1700	  928.00	  868.82	-1872.06	  397.64
     97.2700	  968.00	  917.30	-1880.54	  397.50
     97.3700	  999.00	  975.80	-1908.03	  397.36
     97.4700	 1031.00	 1043.30	-1943.54	  397.22
     97.5700	 1129.00	 1118.26	-1920.49	  397.09
     97.6700	 1156.00	 1198.55	-1973.79	  396.95
     97.7700	 1207.00	 1281.45	-2005.68	  396.82
     97.8700	 1354.00	 1363.52	-1940.76	  396.68
     97.9700	 1416.00	 1440.77	-1956.01	  396.55
     98.0700	 1449.00	 1508.73	-1990.96	  396.42
     98.1700	 1546.00	 1562.82	-1948.05	  396.29
     98.2700	 1526.00	 1598.96	-2004.19	  396.16
     98.3700	 1661.00	 1614.30	-1884.53	  396.03
     98.4700	 1598.00	 1607.88	-1941.11	  395.91
     98.5700	 1560.00	 1580.83	-1952.06	  395.78
     98.6700	 1459.00	 1536.03	-2008.26	  395.65
     98.7700	 1321.00	 1477.43	-2087.67	  395.53
     98.8700	 1386.00	 1409.43	-1954.66	  395.41
     98.9700	 1327.00	 1336.32	-1940.56	  395.29
     99.0700	 1227.00	 1262.11	-1966.35	  395.17
     99.1700	 1191.00	 1190.30	-1930.54	  395.05
     99.2700	 1116.00	 1123.89	-1939.13	  394.93
     99.3700	 1092.00	 1065.41	-1904.65	  394.81
     99.4700	  990.00	 1016.90	-1958.13	  394.70
     99.5700	  987.00	  979.99	-1924.22	  394.58
     99.6700	  956.00	  955.92	-1931.15	  394.47
     99.7700	  980.00	  945.56	-1896.80	  394.36
     99.8700	  967.00	  949.52	-1913.75	  394.25
     99.9700	  968.00	  968.04	-1931.28	  394.14
    100.0700	 1056.00	 1001.13	-1876.37	  394.03
    100.1700	 1037.00	 1048.49	-1942.72	  393.92
    100.2700	 1139.00	 1109.44	-1901.67	  393.81
    100.3700	 1212.00	 1182.97	-1902.21	  393.71
    100.4700	 1289.00	 1267.60	-1909.84	  393.61
    100.5700	 1342.00	 1361.40	-1950.63	  393.50
    100.6700	 1489.00	 1461.78	-1904.02	  393.40
    100.7700	 1510.00	 1565.85	-1987.09	  393.30
    100.8700	 1682.00	 1669.97	-1919.21	  393.21
    100.9700	 1762.00	 1770.19	-1939.43	  393.11
    101.0700	 1819.00	 1862.56	-1974.80	  393.01
    101.1700	 1935.00	 1943.44	-1939.67	  392.92
    101.2700	 1999.00	 2009.93	-1942.16	  392.83
    101.3700	 2082.00	 2060.10	-1909.34	  392.74
    101.4700	 2213.00	 2092.82	-1811.06	  392.65
    101.5700	 2070.00	 2107.52	-1968.75	  392.56
    101.6700	 2070.00	 2103.93	-1965.16	  392.47
    101.7700	 2143.00	 2082.22	-1870.46	  392.39
    101.8700	 2132.00	 2043.26	-1842.50	  392.30
    101.9700	 2039.00	 1988.91	-1881.15	  392.22
    102.0700	 1957.00	 1922.14	-1896.37	  392.14
    102.1700	 1867.00	 1846.79	-1911.02	  392.06
    102.2700	 1784.00	 1767.10	-1914.34	  391.98
    102.3700	 1781.00	 1687.14	-1837.37	  391.90
    102.4700	 1672.00	 1610.40	-1869.63	  391.83
    102.5700	 1531.00	 1539.54	-1939.78	  391.75
    102.6700	 1502.00	 1476.39	-1905.62	  391.68
    102.7700	 1438.00	 1421.87	-1915.11	  391.61
    102.8700	 1382.00	 1376.12	-1925.36	  391.54
    102.9700	 1366.00	 1338.55	-1903.79	  391.47
    103.0700	 1245.00	 1307.93	-1994.16	  391.40
    103.1700	 1237.00	 1282.51	-1976.75	  391.34
    103.2700	 1255.00	 1260.20	-1936.44	  391.28
    103.3700	 1243.00	 1238.70	-1926.93	  391.21
    103.4700	 1226.00	 1215.88	-1921.12	  391.15
    103.5700	 1192.00	 1190.04	-1929.28	  391.10
    103.6700	 1095.00	 1160.15	-1996.39	  391.04
    103.7700	 1122.00	 1125.97	-1935.20	  390.98
    103.8700	 1088.00	 1087.88	-1931.12	  390.93
    103.9700	 1045.00	 1046.78	-1933.02	  390.88
    104.0700	  966.00	 1003.77	-1969.01	  390.83
    104.1700	  971.00	  960.01	-1920.25	  390.78
    104.2700	  946.00	  916.61	-1901.85	  390.73
    104.3700	  886.00	  874.55	-1919.78	  390.69
    104.4700	  875.00	  834.64	-1890.88	  390.64
    104.5700	  790.00	  797.53	-1938.77	  390.60
    104.6700	  773.00	  763.67	-1921.91	  390.56
    104.7700	  761.00	  733.36	-1903.60	  390.52
    104.8700	  777.00	  706.71	-1860.95	  390.49
    104.9700	  751.00	  683.70	-1863.94	  390.45
    105.0700	  667.00	  664.11	-1928.35	  390.42
    105.1700	  760.00	  647.82	-1819.06	  390.39
    105.2700	  654.00	  634.47	-1911.71	  390.36
    105.3700	  681.00	  623.74	-1873.97	  390.33
    105.4700	  620.00	  615.28	-1926.52	  390.30
    105.5700	  612.00	  608.79	-1928.02	  390.28
    105.6700	  579.00	  603.97	-1956.20	  390.26
    105.7700	  613.00	  600.53	-1918.77	  390.24
    105.8700	  627.00	  598.38	-1902.62	  390.22
    105.9700	  566.00	  597.32	-1962.56	  390.20
    106.0700	  578.00	  597.26	-1950.49	  390.19
    106.1700	  584.00	  598.13	-1945.36	  390.17
    106.2700	  596.00	  599.92	-1935.16	  390.16
    106.3700	  631.00	  602.66	-1902.90	  390.15
    106.4700	  600.00	  606.39	-1937.63	  390.14
    106.5700	  614.00	  611.17	-1928.41	  390.14
    106.6700	  613.00	  617.09	-1935.32	  390.13
    106.7700	  594.00	  624.20	-1961.44	  390.13
    106.8700	  669.00	  632.58	-1894.81	  390.13
    106.9700	  633.00	  642.23	-1940.47	  390.14
    107.0700	  637.00	  653.15	-1947.39	  390.14
    107.1700	  659.00	  665.26	-1937.50	  390.15
    107.2700	  719.00	  678.43	-1890.67	  390.15
    107.3700	  647.00	  692.46	-1976.70	  390.16
    107.4700	  699.00	  707.06	-1939.30	  390.18
    107.5700	  688.00	  721.93	-1965.17	  390.19
    107.6700	  691.00	  736.66	-1976.90	  390.21
    107.7700	  770.00	  750.80	-1912.04	  390.22
    107.8700	  725.00	  763.87	-1970.11	  390.24
    107.9700	  739.00	  775.40	-1967.63	  390.27
    108.0700	  740.00	  784.92	-1976.16	  390.29
    108.1700	  728.00	  792.18	-1995.42	  390.32
    108.2700	  759.00	  797.02	-1969.25	  390.34
    108.3700	  785.00	  799.48	-1945.72	  390.37
    108.4700	  778.00	  799.84	-1953.08	  390.41
    108.5700	  709.00	  798.53	-2020.77	  390.44
    108.6700	  778.00	  796.04	-1949.28	  390.48
    108.7700	  810.00	  792.91	-1914.15	  390.52
    108.8700	  817.00	  789.62	-1903.86	  390.56
    108.9700	  745.00	  786.57	-1972.81	  390.60
    109.0700	  766.00	  784.06	-1949.30	  390.65
    109.1700	  742.00	  782.27	-1971.51	  390.69
    109.2700	  760.00	  781.26	-1952.50	  390.74
    109.3700	  727.00	  780.96	-1985.20	  390.80
    109.4700	  819.00	  781.19	-1893.42	  390.85
    109.5700	  760.00	  781.65	-1952.88	  390.91
    109.6700	  777.00	  781.95	-1936.19	  390.96
    109.7700	  716.00	  781.68	-1996.92	  391.03
    109.8700	  784.00	  780.40	-1927.63	  391.09
    109.9700	  753.00	  777.72	-1955.96	  391.15
    110.0700	  737.00	  773.40	-1967.64	  391.22
    110.1700	  790.00	  767.31	-1908.54	  391.29
    110.2700	  749.00	  759.52	-1941.75	  391.36
    110.3700	  779.00	  750.20	-1902.44	  391.44
    110.4700	  704.00	  739.65	-1966.89	  391.51
    110.5700	  706.00	  728.21	-1953.44	  391.59
    110.6700	  748.00	  716.21	-1899.45	  391.67
    110.7700	  672.00	  704.00	-1963.24	  391.76
    110.8700	  702.00	  691.90	-1921.13	  391.84
    110.9700	  696.00	  680.15	-1915.39	  391.93
    111.0700	  692.00	  669.01	-1908.25	  392.02
    111.1700	  668.00	  658.65	-1921.88	  392.11
    111.2700	  623.00	  649.20	-1957.44	  392.21
    111.3700	  683.00	  640.78	-1889.02	  392.31
    111.4700	  639.00	  633.44	-1925.68	  392.41
    111.5700	  607.00	  627.20	-1951.43	  392.51
    111.6700	  701.00	  622.04	-1852.27	  392.61
    111.7700	  646.00	  617.92	-1903.16	  392.72
    111.8700	  605.00	  614.79	-1941.03	  392.83
    111.9700	  605.00	  612.56	-1938.79	  392.94
    112.0700	  572.00	  611.14	-1970.38	  393.06
    112.1700	  588.00	  610.43	-1953.67	  393.18
    112.2700	  614.00	  610.34	-1927.58	  393.30
    112.3700	  597.00	  610.77	-1945.00	  393.42
    112.4700	  614.00	  611.62	-1928.85	  393.54
    112.5700	  593.00	  612.80	-1951.04	  393.67
    112.6700	  566.00	  614.24	-1979.48	  393.80
    112.7700	  589.00	  615.88	-1958.11	  393.93
    112.8700	  581.00	  617.65	-1967.89	  394.07
    112.9700	  647.00	  619.53	-1903.77	  394.20
    113.0700	  630.00	  621.50	-1922.73	  394.34
    113.1700	  587.00	  623.55	-1967.78	  394.48
    113.2700	  638.00	  625.70	-1918.94	  394.63
    113.3700	  613.00	  627.99	-1946.22	  394.78
    113.4700	  645.00	  630.45	-1916.69	  394.93
    113.5700	  623.00	  633.15	-1941.38	  395.08
    113.6700	  578.00	  636.14	-1989.38	  395.23
    113.7700	  596.00	  639.50	-1974.74	  395.39
    113.8700	  654.00	  643.35	-1920.59	  395.55
    113.9700	  616.00	  647.80	-1963.04	  395.72
    114.0700	  659.00	  653.01	-1925.24	  395.88
    114.1700	  640.00	  659.15	-1950.39	  396.05
    114.2700	  617.00	  666.50	-1980.73	  396.22
    114.3700	  630.00	  675.36	-1976.60	  396.39
    114.4700	  655.00	  686.15	-1962.39	  396.57
    114.5700	  673.00	  699.40	-1957.64	  396.75
    114.6700	  724.00	  715.76	-1923.00	  396.93
    114.7700	  728.00	  736.06	-1939.29	  397.12
    114.8700	  816.00	  761.31	-1876.54	  397.30
    114.9700	  784.00	  792.74	-1939.98	  397.49
    115.0700	  850.00	  831.83	-1913.07	  397.69
    115.1700	  880.00	  880.27	-1931.51	  397.88
    115.2700	  979.00	  940.06	-1892.30	  398.08
    115.3700	 1055.00	 1013.41	-1889.65	  398.28
    115.4700	 1225.00	 1102.76	-1809.00	  398.48
    115.5700	 1352.00	 1210.71	-1789.94	  398.69
    115.6700	 1528.00	 1339.93	-1743.17	  398.90
    115.7700	 1631.00	 1493.13	-1793.36	  399.11
    115.8700	 1810.00	 1672.87	-1794.11	  399.33
    115.9700	 2013.00	 1881.41	-1799.65	  399.54
    116.0700	 2388.00	 2120.55	-1663.78	  399.77
    116.1700	 2598.00	 2391.39	-1724.63	  399.99
    116.2700	 2939.00	 2694.32	-1686.55	  400.21
    116.3700	 3222.00	 3028.70	-1737.94	  400.44
    116.4700	 3577.00	 3392.67	-1746.91	  400.68
    116.5700	 3913.00	 3783.08	-1801.31	  400.91
    116.6700	 4296.00	 4195.42	-1830.66	  401.15
    116.7700	 4728.00	 4623.84	-1827.07	  401.39
    116.8700	 4919.00	 5061.11	-2073.35	  401.63
    116.9700	 5513.00	 5498.57	-1916.81	  401.88
    117.0700	 5766.00	 5926.42	-2091.66	  402.13
    117.1700	 6219.00	 6333.83	-2046.07	  402.38
    117.2700	 6604.00	 6709.38	-2036.62	  402.64
    117.3700	 6936.00	 7041.37	-2036.61	  402.89
    117.4700	 7142.00	 7318.28	-2107.52	  403.15
    117.5700	 7264.00	 7529.70	-2196.93	  403.42
    117.6700	 7344.00	 7667.13	-2254.37	  403.69
    117.7700	 7336.00	 7724.95	-2320.18	  403.96
    117.8700	 7483.00	 7700.92	-2149.15	  404.23
    117.9700	 7428.00	 7596.56	-2099.80	  404.50
    118.0700	 7138.00	 7416.94	-2210.18	  404.78
    118.1700	 6861.00	 7170.08	-2240.32	  405.07
    118.2700	 6565.00	 6865.99	-2232.23	  405.35
    118.3700	 6355.00	 6515.81	-2092.05	  405.64
    118.4700	 6055.00	 6131.15	-2007.39	  405.93
    118.5700	 5682.00	 5723.41	-1972.65	  406.22
    118.6700	 5279.00	 5303.36	-1955.59	  406.52
    118.7700	 4880.00	 4880.68	-1931.91	  406.82
    118.8700	 4655.00	 4463.88	-1740.12	  407.12
    118.9700	 4274.00	 4060.29	-1717.53	  407.43
    119.0700	 3998.00	 3675.81	-1609.05	  407.74
    119.1700	 3520.00	 3315.00	-1726.24	  408.05
    119.2700	 3256.00	 2980.96	-1656.20	  408.37
    119.3700	 2973.00	 2675.59	-1633.82	  408.69
    119.4700	 2614.00	 2399.76	-1717.00	  409.01
    119.5700	 2351.00	 2153.38	-1733.62	  409.33
    119.6700	 2189.00	 1935.61	-1677.84	  409.66
    119.7700	 1905.00	 1744.92	-1771.16	  409.99
    119.8700	 1725.00	 1579.40	-1785.64	  410.33
    119.9700	 1585.00	 1436.88	-1783.12	  410.67
    120.0700	 1487.00	 1315.02	-1759.26	  411.01
    120.1700	 1366.00	 1211.45	-1776.68	  411.35
    120.2700	 1249.00	 1123.82	-1806.06	  411.70
    120.3700	 1160.00	 1049.95	-1821.18	  412.05
    120.4700	  993.00	  987.82	-1926.05	  412.40
    120.5700	 1050.00	  935.63	-1816.87	  412.76
    120.6700	  970.00	  891.81	-1853.05	  413.12
    120.7700	  935.00	  854.99	-1851.22	  413.48
    120.8700	  839.00	  824.01	-1916.24	  413.85
    120.9700	  832.00	  797.92	-1897.15	  414.22
    121.0700	  823.00	  775.93	-1884.16	  414.59
    121.1700	  729.00	  757.39	-1959.63	  414.97
    121.2700	  802.00	  741.78	-1871.02	  415.35
    121.3700	  761.00	  728.68	-1898.92	  415.73
    121.4700	  718.00	  717.75	-1930.99	  416.12
    121.5700	  687.00	  708.73	-1952.97	  416.51
    121.6700	  673.00	  701.40	-1959.64	  416.90
    121.7700	  683.00	  695.59	-1943.82	  417.29
    121.8700	  635.00	  691.15	-1987.38	  417.69
    121.9700	  692.00	  687.97	-1927.20	  418.10
    122.0700	  643.00	  685.96	-1974.19	  418.50
    122.1700	  620.00	  685.04	-1996.27	  418.91
    122.2700	  613.00	  685.14	-2003.38	  419.32
    122.3700	  664.00	  686.21	-1953.44	  419.74
    122.4700	  643.00	  688.18	-1976.41	  420.16
    122.5700	  677.00	  691.00	-1945.23	  420.58
    122.6700	  657.00	  694.61	-1968.84	  421.01
    122.7700	  668.00	  698.94	-1962.18	  421.44
    122.8700	  668.00	  703.94	-1967.18	  421.87
    122.9700	  691.00	  709.52	-1949.75	  422.31
    123.0700	  694.00	  715.60	-1952.83	  422.75
    123.1700	  697.00	  722.09	-1956.32	  423.19
    123.2700	  674.00	  728.88	-1986.12	  423.64
    123.3700	  708.00	  735.87	-1959.11	  424.09
    123.4700	  741.00	  742.95	-1933.19	  424.54
    123.5700	  762.00	  749.99	-1919.23	  425.00
    123.6700	  755.00	  756.87	-1933.10	  425.46
    123.7700	  747.00	  763.46	-1947.70	  425.92
    123.8700	  779.00	  769.65	-1921.89	  426.39
    123.9700	  815.00	  775.34	-1891.58	  426.86
    124.0700	  697.00	  780.46	-2014.69	  427.33
    124.1700	  790.00	  784.93	-1926.17	  427.81
    124.2700	  706.00	  788.72	-2013.96	  428.29
    124.3700	  781.00	  791.89	-1942.13	  428.78
    124.4700	  785.00	  794.43	-1940.67	  429.27
    124.5700	  820.00	  796.40	-1907.63	  429.76
    124.6700	  709.00	  797.85	-2020.09	  430.25
    124.7700	  788.00	  798.87	-1942.10	  430.75
    124.8700	  784.00	  799.50	-1946.74	  431.25
    124.9700	  759.00	  561.80	-1734.04	  431.76
    125.0700	  775.00	  562.31	-1931.24	  432.27
    125.1700	  745.00	  562.83	-1931.24	  432.78
    125.2700	  791.00	  563.34	-1931.24	  433.30
    125.3700	  797.00	  563.86	-1931.24	  433.82
    125.4700	  757.00	  564.39	-1931.24	  434.34
    125.5700	  773.00	  564.91	-1931.24	  434.87
    125.6700	  706.00	  565.45	-1931.24	  435.40
    125.7700	  754.00	  565.98	-1931.24	  435.94
    125.8700	  743.00	  566.52	-1931.24	  436.47
    125.9700	  753.00	  567.06	-1931.24	  437.02
    126.0700	  711.00	  567.61	-1931.24	  437.56
    126.1700	  718.00	  568.15	-1931.24	  438.11
    126.2700	  678.00	  568.71	-1931.24	  438.66
    126.3700	  642.00	  569.26	-1931.24	  439.22
    126.4700	  750.00	  569.82	-1931.24	  439.78
    126.5700	  718.00	  570.39	-1931.24	  440.34
    126.6700	  664.00	  570.95	-1931.24	  440.91
    126.7700	  707.00	  571.52	-1931.24	  441.48
    126.8700	  690.00	  572.10	-1931.24	  442.05
    126.9700	  655.00	  572.68	-1931.24	  442.63
    127.0700	  654.00	  573.26	-1931.24	  443.21
    127.1700	  666.00	  573.84	-1931.24	  443.80
    127.2700	  662.00	  574.43	-1931.24	  444.39
    127.3700	  610.00	  575.03	-1931.24	  444.98
    127.4700	  640.00	  575.62	-1931.24	  445.58
    127.5700	  628.00	  576.22	-1931.24	  446.18
    127.6700	  679.00	  576.83	-1931.24	  446.78
    127.7700	  608.00	  577.44	-1931.24	  447.39
    127.8700	  630.00	  578.05	-1931.24	  448.00
    127.9700	  669.00	  578.66	-1931.24	  448.62
    128.0700	  691.00	  579.28	-1931.24	  449.24
    128.1700	  653.00	  579.90	-1931.24	  449.86
    128.2700	  642.00	  580.53	-1931.24	  450.49
    128.3700	  675.00	  581.16	-1931.24	  451.12
    128.4700	  679.00	  581.79	-1931.24	  451.75
    128.5700	    0.00	  582.43	-1931.24	  452.39
    128.6700	    0.00	  583.07	-1931.24	  453.03
     12.4192	        	        	        	        	       0	(  0  0  2)	  0  1
     12.4192	        	        	        	        	    -482	(  0  0  2)	  0  1
     25.0799	        	        	        	        	       0	(  0  0  4)	  0  1
     25.0799	        	        	        	        	    -482	(  0  0  4)	  0  1
     28.5378	        	        	        	        	       0	(  1  0  0)	  0  1
     28.5378	        	        	        	        	    -482	(  1  0  0)	  0  1
     29.2396	        	        	        	        	       0	(  1  0  1)	  0  1
     29.2396	        	        	        	        	    -482	(  1  0  1)	  0  1
     31.2591	        	        	        	        	       0	(  1  0  2)	  0  1
     31.2591	        	        	        	        	    -482	(  1  0  2)	  0  1
     34.3881	        	        	        	        	       0	(  1  0  3)	  0  1
     34.3881	        	        	        	        	    -482	(  1  0  3)	  0  1
     38.0627	        	        	        	        	       0	(  0  0  6)	  0  1
     38.0627	        	        	        	        	    -482	(  0  0  6)	  0  1
     38.3920	        	        	        	        	       0	(  1  0  4)	  0  1
     38.3920	        	        	        	        	    -482	(  1  0  4)	  0  1
     43.0741	        	        	        	        	       0	(  1  0  5)	  0  1
     43.0741	        	        	        	        	    -482	(  1  0  5)	  0  1
     48.2950	        	        	        	        	       0	(  1  0  6)	  0  1
     48.2950	        	        	        	        	    -482	(  1  0  6)	  0  1
     50.6190	        	        	        	        	       0	(  1  1  0)	  0  1
     50.6190	        	        	        	        	    -482	(  1  1  0)	  0  1
     51.5783	        	        	        	        	       0	(  0  0  8)	  0  1
     51.5783	        	        	        	        	    -482	(  0  0  8)	  0  1
     52.3550	        	        	        	        	       0	(  1  1  2)	  0  1
     52.3550	        	        	        	        	    -482	(  1  1  2)	  0  1
     53.9671	        	        	        	        	       0	(  1  0  7)	  0  1
     53.9671	        	        	        	        	    -482	(  1  0  7)	  0  1
     57.3411	        	        	        	        	       0	(  1  1  4)	  0  1
     57.3411	        	        	        	        	    -482	(  1  1  4)	  0  1
     59.1786	        	        	        	        	       0	(  2  0  0)	  0  1
     59.1786	        	        	        	        	    -482	(  2  0  0)	  0  1
     59.5733	        	        	        	        	       0	(  2  0  1)	  0  1
     59.5733	        	        	        	        	    -482	(  2  0  1)	  0  1
     60.0443	        	        	        	        	       0	(  1  0  8)	  0  1
     60.0443	        	        	        	        	    -482	(  1  0  8)	  0  1
     60.7482	        	        	        	        	       0	(  2  0  2)	  0  1
     60.7482	        	        	        	        	    -482	(  2  0  2)	  0  1
     62.6771	        	        	        	        	       0	(  2  0  3)	  0  1
     62.6771	        	        	        	        	    -482	(  2  0  3)	  0  1
     65.0986	        	        	        	        	       0	(  1  1  6)	  0  1
     65.0986	        	        	        	        	    -482	(  1  1  6)	  0  1
     65.3233	        	        	        	        	       0	(  2  0  4)	  0  1
     65.3233	        	        	        	        	    -482	(  2  0  4)	  0  1
     65.9194	        	        	        	        	       0	(  0  0 10)	  0  1
     65.9194	        	        	        	        	    -482	(  0  0 10)	  0  1
     66.5137	        	        	        	        	       0	(  1  0  9)	  0  1
     66.5137	        	        	        	        	    -482	(  1  0  9)	  0  1
     68.6462	        	        	        	        	       0	(  2  0  5)	  0  1
     68.6462	        	        	        	        	    -482	(  2  0  5)	  0  1
     72.6092	        	        	        	        	       0	(  2  0  6)	  0  1
     72.6092	        	        	        	        	    -482	(  2  0  6)	  0  1
     73.3905	        	        	        	        	       0	(  1  0 10)	  0  1
     73.3905	        	        	        	        	    -482	(  1  0 10)	  0  1
     75.2265	        	        	        	        	       0	(  1  1  8)	  0  1
     75.2265	        	        	        	        	    -482	(  1  1  8)	  0  1
     77.1865	        	        	        	        	       0	(  2  0  7)	  0  1
     77.1865	        	        	        	        	    -482	(  2  0  7)	  0  1
     80.7189	        	        	        	        	       0	(  1  0 11)	  0  1
     80.7189	        	        	        	        	    -482	(  1  0 11)	  0  1
     81.5444	        	        	        	        	       0	(  0  0 12)	  0  1
     81.5444	        	        	        	        	    -482	(  0  0 12)	  0  1
     81.6143	        	        	        	        	       0	(  2  1  0)	  0  1
     81.6143	        	        	        	        	    -482	(  2  1  0)	  0  1
     81.9578	        	        	        	        	       0	(  2  1  1)	  0  1
     81.9578	        	        	        	        	    -482	(  2  1  1)	  0  1
     82.3690	        	        	        	        	       0	(  2  0  8)	  0  1
     82.3690	        	        	        	        	    -482	(  2  0  8)	  0  1
     82.9864	        	        	        	        	       0	(  2  1  2)	  0  1
     82.9864	        	        	        	        	    -482	(  2  1  2)	  0  1
     84.6960	        	        	        	        	       0	(  2  1  3)	  0  1
     84.6960	        	        	        	        	    -482	(  2  1  3)	  0  1
     87.0820	        	        	        	        	       0	(  2  1  4)	  0  1
     87.0820	        	        	        	        	    -482	(  2  1  4)	  0  1
     87.6259	        	        	        	        	       0	(  1  1 10)	  0  1
     87.6259	        	        	        	        	    -482	(  1  1 10)	  0  1
     88.1704	        	        	        	        	       0	(  2  0  9)	  0  1
     88.1704	        	        	        	        	    -482	(  2  0  9)	  0  1
     88.5781	        	        	        	        	       0	(  1  0 12)	  0  1
     88.5781	        	        	        	        	    -482	(  1  0 12)	  0  1
     90.1432	        	        	        	        	       0	(  2  1  5)	  0  1
     90.1432	        	        	        	        	    -482	(  2  1  5)	  0  1
     93.8863	        	        	        	        	       0	(  2  1  6)	  0  1
     93.8863	        	        	        	        	    -482	(  2  1  6)	  0  1
     94.6359	        	        	        	        	       0	(  2  0 10)	  0  1
     94.6359	        	        	        	        	    -482	(  2  0 10)	  0  1
     95.6610	        	        	        	        	       0	(  3  0  0)	  0  1
     95.6610	        	        	        	        	    -482	(  3  0  0)	  0  1
     96.0029	        	        	        	        	       0	(  3  0  1)	  0  1
     96.0029	        	        	        	        	    -482	(  3  0  1)	  0  1
     97.0297	        	        	        	        	       0	(  3  0  2)	  0  1
     97.0297	        	        	        	        	    -482	(  3  0  2)	  0  1
     97.0969	        	        	        	        	       0	(  1  0 13)	  0  1
     97.0969	        	        	        	        	    -482	(  1  0 13)	  0  1
     98.3333	        	        	        	        	       0	(  2  1  7)	  0  1
     98.3333	        	        	        	        	    -482	(  2  1  7)	  0  1
     98.7463	        	        	        	        	       0	(  3  0  3)	  0  1
     98.7463	        	        	        	        	    -482	(  3  0  3)	  0  1
     99.2958	        	        	        	        	       0	(  0  0 14)	  0  1
     99.2958	        	        	        	        	    -482	(  0  0 14)	  0  1
    101.1635	        	        	        	        	       0	(  3  0  4)	  0  1
    101.1635	        	        	        	        	    -482	(  3  0  4)	  0  1
    101.8568	        	        	        	        	       0	(  2  0 11)	  0  1
    101.8568	        	        	        	        	    -482	(  2  0 11)	  0  1
    102.6920	        	        	        	        	       0	(  1  1 12)	  0  1
    102.6920	        	        	        	        	    -482	(  1  1 12)	  0  1
    103.5309	        	        	        	        	       0	(  2  1  8)	  0  1
    103.5309	        	        	        	        	    -482	(  2  1  8)	  0  1
    104.3021	        	        	        	        	       0	(  3  0  5)	  0  1
    104.3021	        	        	        	        	    -482	(  3  0  5)	  0  1
    106.4882	        	        	        	        	       0	(  1  0 14)	  0  1
    106.4882	        	        	        	        	    -482	(  1  0 14)	  0  1
    108.2002	        	        	        	        	       0	(  3  0  6)	  0  1
    108.2002	        	        	        	        	    -482	(  3  0  6)	  0  1
    109.5661	        	        	        	        	       0	(  2  1  9)	  0  1
    109.5661	        	        	        	        	    -482	(  2  1  9)	  0  1
    109.9994	        	        	        	        	       0	(  2  0 12)	  0  1
    109.9994	        	        	        	        	    -482	(  2  0 12)	  0  1
    112.9250	        	        	        	        	       0	(  3  0  7)	  0  1
    112.9250	        	        	        	        	    -482	(  3  0  7)	  0  1
    116.5972	        	        	        	        	       0	(  2  1 10)	  0  1
    116.5972	        	        	        	        	    -482	(  2  1 10)	  0  1
    117.1301	        	        	        	        	       0	(  1  0 15)	  0  1
    117.1301	        	        	        	        	    -482	(  1  0 15)	  0  1
    117.7456	        	        	        	        	       0	(  2  2  0)	  0  1
    117.7456	        	        	        	        	    -482	(  2  2  0)	  0  1
    118.5942	        	        	        	        	       0	(  3  0  8)	  0  1
    118.5942	        	        	        	        	    -482	(  3  0  8)	  0  1
    119.2948	        	        	        	        	       0	(  2  2  2)	  0  1
    119.2948	        	        	        	        	    -482	(  2  2  2)	  0  1
    119.3713	        	        	        	        	       0	(  2  0 13)	  0  1
    119.3713	        	        	        	        	    -482	(  2  0 13)	  0  1
    121.1833	        	        	        	        	       0	(  0  0 16)	  0  1
    121.1833	        	        	        	        	    -482	(  0  0 16)	  0  1
    121.9026	        	        	        	        	       0	(  1  1 14)	  0  1
    121.9026	        	        	        	        	    -482	(  1  1 14)	  0  1
    124.0959	        	        	        	        	       0	(  2  2  4)	  0  1
    124.0959	        	        	        	        	    -482	(  2  2  4)	  0  1
    124.9210	        	        	        	        	       0	(  2  1 11)	  0  1
    124.9210	        	        	        	        	    -482	(  2  1 11)	  0  1
    125.4210	        	        	        	        	       0	(  3  0  9)	  0  1
    125.4210	        	        	        	        	    -482	(  3  0  9)	  0  1
    126.0088	        	        	        	        	       0	(  3  1  0)	  0  1
    126.0088	        	        	        	        	    -482	(  3  1  0)	  0  1
    126.4307	        	        	        	        	       0	(  3  1  1)	  0  1
    126.4307	        	        	        	        	    -482	(  3  1  1)	  0  1
    127.7106	        	        	        	        	       0	(  3  1  2)	  0  1
    127.7106	        	        	        	        	    -482	(  3  1  2)	  0  1
    129.8036	        	        	        	        	       0	(  1  0 16)	  0  1
    129.8036	        	        	        	        	    -482	(  1  0 16)	  0  1
    129.8948	        	        	        	        	       0	(  3  1  3)	  0  1
    129.8948	        	        	        	        	    -482	(  3  1  3)	  0  1
    130.6066	        	        	        	        	       0	(  2  0 14)	  0  1
    130.6066	        	        	        	        	    -482	(  2  0 14)	  0  1
    132.7974	        	        	        	        	       0	(  2  2  6)	  0  1
    132.7974	        	        	        	        	    -482	(  2  2  6)	  0  1
    133.0766	        	        	        	        	       0	(  3  1  4)	  0  1
    133.0766	        	        	        	        	    -482	(  3  1  4)	  0  1
    133.8262	        	        	        	        	       0	(  3  0 10)	  0  1
    133.8262	        	        	        	        	    -482	(  3  0 10)	  0  1
    135.1624	        	        	        	        	       0	(  2  1 12)	  0  1
    135.1624	        	        	        	        	    -482	(  2  1 12)	  0  1
    137.4313	        	        	        	        	       0	(  3  1  5)	  0  1
    137.4313	        	        	        	        	    -482	(  3  1  5)	  0  1
    143.3085	        	        	        	        	       0	(  3  1  6)	  0  1
    143.3085	        	        	        	        	    -482	(  3  1  6)	  0  1
    144.8168	        	        	        	        	       0	(  3  0 11)	  0  1
    144.8168	        	        	        	        	    -482	(  3  0 11)	  0  1
    145.4112	        	        	        	        	       0	(  2  0 15)	  0  1
    145.4112	        	        	        	        	    -482	(  2  0 15)	  0  1
    146.7539	        	        	        	        	       0	(  1  0 17)	  0  1
    146.7539	        	        	        	        	    -482	(  1  0 17)	  0  1
    147.7655	        	        	        	        	       0	(  2  2  8)	  0  1
    147.7655	        	        	        	        	    -482	(  2  2  8)	  0  1
    149.0656	        	        	        	        	       0	(  2  1 13)	  0  1
    149.0656	        	        	        	        	    -482	(  2  1 13)	  0  1
    151.5454	        	        	        	        	       0	(  3  1  7)	  0  1
    151.5454	        	        	        	        	    -482	(  3  1  7)	  0  1
    152.2660	        	        	        	        	       0	(  1  1 16)	  0  1
    152.2660	        	        	        	        	    -482	(  1  1 16)	  0  1
    157.2234	        	        	        	        	       0	(  0  0 18)	  0  1
    157.2234	        	        	        	        	    -482	(  0  0 18)	  0  1
    162.5977	        	        	        	        	       0	(  3  0 12)	  0  1
    162.5977	        	        	        	        	    -482	(  3  0 12)	  0  1
    162.8317	        	        	        	        	       0	(  4  0  0)	  0  1
    162.8317	        	        	        	        	    -482	(  4  0  0)	  0  1
    164.0302	        	        	        	        	       0	(  4  0  1)	  0  1
    164.0302	        	        	        	        	    -482	(  4  0  1)	  0  1
    165.5947	        	        	        	        	       0	(  3  1  8)	  0  1
    165.5947	        	        	        	        	    -482	(  3  1  8)	  0  1
    168.3282	        	        	        	        	       0	(  4  0  2)	  0  1
    168.3282	        	        	        	        	    -482	(  4  0  2)	  0  1
