MSG Master    CELL:    5.88028   5.88028  23.10198   90.0000   90.0000  120.0000   SPGR: P 63/m m c             TEMP:    527.15
  2   1280     2.52000     0.00000    -0.08929     0.00000     0.00000    0
    96    96     0     0     2
       0.00000      10.00000
     125.00000     130.00000
 2Theta	Yobs	Ycal	Yobs-Ycal	Backg	Posr	(hkl)	K
      0.7700	    0.00	  932.39	-1988.50	  796.88
      0.8700	    1.00	  929.43	-1988.50	  793.93
      0.9700	   50.00	  926.49	-1988.50	  790.98
      1.0700	   50.00	  923.56	-1988.50	  788.06
      1.1700	   54.00	  920.66	-1988.50	  785.16
      1.2700	   46.00	  917.77	-1988.50	  782.27
      1.3700	   48.00	  914.90	-1988.50	  779.40
      1.4700	   78.00	  912.05	-1988.50	  776.54
      1.5700	  282.00	  909.21	-1988.50	  773.71
      1.6700	  463.00	  906.39	-1988.50	  770.89
      1.7700	  547.00	  903.59	-1988.50	  768.09
      1.8700	  684.00	  900.81	-1988.50	  765.31
      1.9700	  710.00	  898.05	-1988.50	  762.54
      2.0700	  757.00	  895.30	-1988.50	  759.80
      2.1700	  796.00	  892.57	-1988.50	  757.06
      2.2700	  797.00	  889.85	-1988.50	  754.35
      2.3700	  741.00	  887.15	-1988.50	  751.65
      2.4700	  727.00	  884.47	-1988.50	  748.97
      2.5700	  625.00	  881.81	-1988.50	  746.31
      2.6700	  626.00	  879.16	-1988.50	  743.66
      2.7700	  669.00	  876.53	-1988.50	  741.03
      2.8700	  640.00	  873.92	-1988.50	  738.42
      2.9700	  552.00	  871.32	-1988.50	  735.82
      3.0700	  646.00	  868.74	-1988.50	  733.24
      3.1700	  633.00	  866.18	-1988.50	  730.68
      3.2700	  721.00	  863.63	-1988.50	  728.13
      3.3700	  902.00	  861.10	-1988.50	  725.60
      3.4700	 1104.00	  858.58	-1988.50	  723.08
      3.5700	 1156.00	  856.09	-1988.50	  720.58
      3.6700	 1329.00	  853.60	-1988.50	  718.10
      3.7700	 1389.00	  851.14	-1988.50	  715.63
      3.8700	 1505.00	  848.68	-1988.50	  713.18
      3.9700	 1568.00	  846.25	-1988.50	  710.75
      4.0700	 1570.00	  843.83	-1988.50	  708.33
      4.1700	 1711.00	  841.43	-1988.50	  705.92
      4.2700	 1667.00	  839.04	-1988.50	  703.54
      4.3700	 1664.00	  836.67	-1988.50	  701.16
      4.4700	 1595.00	  834.31	-1988.50	  698.81
      4.5700	 1501.00	  831.97	-1988.50	  696.47
      4.6700	 1612.00	  829.64	-1988.50	  694.14
      4.7700	 1461.00	  827.33	-1988.50	  691.83
      4.8700	 1442.00	  825.04	-1988.50	  689.53
      4.9700	 1325.00	  822.75	-1988.50	  687.25
      5.0700	 1313.00	  820.49	-1988.50	  684.99
      5.1700	 1313.00	  818.24	-1988.50	  682.74
      5.2700	 1219.00	  816.00	-1988.50	  680.50
      5.3700	 1274.00	  813.78	-1988.50	  678.28
      5.4700	 1231.00	  811.58	-1988.50	  676.08
      5.5700	 1215.00	  809.39	-1988.50	  673.89
      5.6700	 1134.00	  807.21	-1988.50	  671.71
      5.7700	 1221.00	  805.05	-1988.50	  669.55
      5.8700	 1083.00	  802.91	-1988.50	  667.40
      5.9700	 1082.00	  800.77	-1988.50	  665.27
      6.0700	 1124.00	  798.66	-1988.50	  663.15
      6.1700	 1058.00	  796.55	-1988.50	  661.05
      6.2700	 1045.00	  794.46	-1988.50	  658.96
      6.3700	 1009.00	  792.39	-1988.50	  656.89
      6.4700	 1048.00	  790.33	-1988.50	  654.83
      6.5700	 1020.00	  788.28	-1988.50	  652.78
      6.6700	  967.00	  786.25	-1988.50	  650.75
      6.7700	  934.00	  784.23	-1988.50	  648.73
      6.8700	  889.00	  782.23	-1988.50	  646.73
      6.9700	  968.00	  780.24	-1988.50	  644.74
      7.0700	  912.00	  778.26	-1988.50	  642.76
      7.1700	  839.00	  776.30	-1988.50	  640.80
      7.2700	  887.00	  774.35	-1988.50	  638.85
      7.3700	  892.00	  772.42	-1988.50	  636.92
      7.4700	  904.00	  770.50	-1988.50	  635.00
      7.5700	  813.00	  768.59	-1988.50	  633.09
      7.6700	  850.00	  766.70	-1988.50	  631.19
      7.7700	  810.00	  764.81	-1988.50	  629.31
      7.8700	  838.00	  762.95	-1988.50	  627.45
      7.9700	  821.00	  761.09	-1988.50	  625.59
      8.0700	  800.00	  759.25	-1988.50	  623.75
      8.1700	  815.00	  757.42	-1988.50	  621.92
      8.2700	  783.00	  755.61	-1988.50	  620.11
      8.3700	  821.00	  753.81	-1988.50	  618.31
      8.4700	  730.00	  752.02	-1988.50	  616.52
      8.5700	  789.00	  750.24	-1988.50	  614.74
      8.6700	  831.00	  748.48	-1988.50	  612.98
      8.7700	  831.00	  746.73	-1988.50	  611.23
      8.8700	  747.00	  744.99	-1988.50	  609.49
      8.9700	  724.00	  743.27	-1988.50	  607.77
      9.0700	  740.00	  741.56	-1988.50	  606.05
      9.1700	  767.00	  739.86	-1988.50	  604.36
      9.2700	  821.00	  738.17	-1988.50	  602.67
      9.3700	  765.00	  736.50	-1988.50	  600.99
      9.4700	  733.00	  734.83	-1988.50	  599.33
      9.5700	  749.00	  733.18	-1988.50	  597.68
      9.6700	  741.00	  731.55	-1988.50	  596.05
      9.7700	  718.00	  729.92	-1988.50	  594.42
      9.8700	  748.00	  728.31	-1988.50	  592.81
      9.9700	  756.00	  726.71	-1988.50	  591.21
     10.0700	  690.00	  727.20	-2025.70	  589.62
     10.1700	  754.00	  725.85	-1960.35	  588.04
     10.2700	  750.00	  724.55	-1963.05	  586.48
     10.3700	  752.00	  723.33	-1959.83	  584.92
     10.4700	  752.00	  722.20	-1958.70	  583.38
     10.5700	  709.00	  721.21	-2000.71	  581.85
     10.6700	  733.00	  720.42	-1975.92	  580.34
     10.7700	  659.00	  719.91	-2049.41	  578.83
     10.8700	  769.00	  719.77	-1939.27	  577.33
     10.9700	  712.00	  720.10	-1996.60	  575.85
     11.0700	  736.00	  720.94	-1973.44	  574.38
     11.1700	  755.00	  722.32	-1955.82	  572.92
     11.2700	  745.00	  724.24	-1967.74	  571.47
     11.3700	  738.00	  726.76	-1977.26	  570.03
     11.4700	  759.00	  729.97	-1959.47	  568.61
     11.5700	  697.00	  734.02	-2025.52	  567.19
     11.6700	  739.00	  739.14	-1988.64	  565.79
     11.7700	  789.00	  745.63	-1945.13	  564.40
     11.8700	  788.00	  753.79	-1954.29	  563.02
     11.9700	  765.00	  763.69	-1987.19	  561.65
     12.0700	  834.00	  774.77	-1929.27	  560.29
     12.1700	  828.00	  785.29	-1945.79	  558.94
     12.2700	  866.00	  791.73	-1914.23	  557.60
     12.3700	  791.00	  789.17	-1986.67	  556.27
     12.4700	  744.00	  775.06	-2019.56	  554.96
     12.5700	  756.00	  754.19	-1986.69	  553.65
     12.6700	  701.00	  734.04	-2021.54	  552.35
     12.7700	  753.00	  718.23	-1953.73	  551.07
     12.8700	  696.00	  707.05	-1999.55	  549.80
     12.9700	  663.00	  699.46	-2024.96	  548.53
     13.0700	  632.00	  694.27	-2050.77	  547.28
     13.1700	  653.00	  690.53	-2026.03	  546.04
     13.2700	  659.00	  687.61	-2017.11	  544.80
     13.3700	  675.00	  685.18	-1998.68	  543.58
     13.4700	  630.00	  683.05	-2041.55	  542.37
     13.5700	  683.00	  681.13	-1986.63	  541.17
     13.6700	  680.00	  679.37	-1987.87	  539.97
     13.7700	  682.00	  677.72	-1984.22	  538.79
     13.8700	  655.00	  676.17	-2009.67	  537.62
     13.9700	  699.00	  674.68	-1964.18	  536.46
     14.0700	  680.00	  673.26	-1981.76	  535.31
     14.1700	  637.00	  671.89	-2023.39	  534.16
     14.2700	  663.00	  670.56	-1996.06	  533.03
     14.3700	  622.00	  669.27	-2035.77	  531.91
     14.4700	  669.00	  668.01	-1987.51	  530.79
     14.5700	  645.00	  666.78	-2010.28	  529.69
     14.6700	  630.00	  665.57	-2024.07	  528.60
     14.7700	  629.00	  664.39	-2023.89	  527.51
     14.8700	  605.00	  663.22	-2046.72	  526.44
     14.9700	  668.00	  662.08	-1982.58	  525.37
     15.0700	  669.00	  660.95	-1980.45	  524.32
     15.1700	  654.00	  659.84	-1994.34	  523.27
     15.2700	  674.00	  658.74	-1973.24	  522.23
     15.3700	  629.00	  657.66	-2017.16	  521.20
     15.4700	  656.00	  656.60	-1989.10	  520.18
     15.5700	  660.00	  655.54	-1984.04	  519.17
     15.6700	  672.00	  654.50	-1971.00	  518.17
     15.7700	  615.00	  653.48	-2026.98	  517.18
     15.8700	  645.00	  652.46	-1995.96	  516.20
     15.9700	  647.00	  651.46	-1992.96	  515.22
     16.0700	  666.00	  650.46	-1972.96	  514.26
     16.1700	  679.00	  649.48	-1958.98	  513.30
     16.2700	  652.00	  648.51	-1985.01	  512.35
     16.3700	  684.00	  647.55	-1952.05	  511.41
     16.4700	  626.00	  646.60	-2009.10	  510.48
     16.5700	  645.00	  645.66	-1989.16	  509.56
     16.6700	  658.00	  644.73	-1975.23	  508.65
     16.7700	  679.00	  643.81	-1953.31	  507.74
     16.8700	  631.00	  642.90	-2000.40	  506.85
     16.9700	  598.00	  642.00	-2032.50	  505.96
     17.0700	  610.00	  641.11	-2019.61	  505.08
     17.1700	  665.00	  640.22	-1963.72	  504.21
     17.2700	  630.00	  639.35	-1997.85	  503.35
     17.3700	  636.00	  638.49	-1990.99	  502.49
     17.4700	  624.00	  637.63	-2002.13	  501.64
     17.5700	  654.00	  636.78	-1971.28	  500.81
     17.6700	  636.00	  635.95	-1988.45	  499.98
     17.7700	  634.00	  635.12	-1989.62	  499.15
     17.8700	  633.00	  634.30	-1989.80	  498.34
     17.9700	  649.00	  633.48	-1972.98	  497.53
     18.0700	  642.00	  632.68	-1979.18	  496.74
     18.1700	  656.00	  631.89	-1964.39	  495.95
     18.2700	  618.00	  631.10	-2001.60	  495.16
     18.3700	  630.00	  630.32	-1988.82	  494.39
     18.4700	  597.00	  629.55	-2021.05	  493.62
     18.5700	  592.00	  628.79	-2025.29	  492.86
     18.6700	  629.00	  628.03	-1987.53	  492.11
     18.7700	  649.00	  627.29	-1966.79	  491.37
     18.8700	  661.00	  626.55	-1954.05	  490.63
     18.9700	  662.00	  625.82	-1952.32	  489.90
     19.0700	  613.00	  628.08	-2003.58	  489.18
     19.1700	  632.00	  627.43	-1983.93	  488.47
     19.2700	  651.00	  626.79	-1964.29	  487.76
     19.3700	  633.00	  626.15	-1981.65	  487.06
     19.4700	  625.00	  625.53	-1989.03	  486.37
     19.5700	  600.00	  624.92	-2013.42	  485.69
     19.6700	  638.00	  624.32	-1974.82	  485.01
     19.7700	  631.00	  623.73	-1981.23	  484.34
     19.8700	  656.00	  623.15	-1955.65	  483.68
     19.9700	  612.00	  622.57	-1999.07	  483.02
     20.0700	  649.00	  622.01	-1961.51	  482.37
     20.1700	  598.00	  621.46	-2011.96	  481.73
     20.2700	  603.00	  620.99	-2006.49	  481.09
     20.3700	  661.00	  620.46	-1947.96	  480.47
     20.4700	  632.00	  619.94	-1976.44	  479.84
     20.5700	  626.00	  619.44	-1981.94	  479.23
     20.6700	  624.00	  618.94	-1983.44	  478.62
     20.7700	  593.00	  618.46	-2013.96	  478.02
     20.8700	  614.00	  617.99	-1992.49	  477.43
     20.9700	  648.00	  617.53	-1958.03	  476.84
     21.0700	  619.00	  617.09	-1986.59	  476.26
     21.1700	  594.00	  616.65	-2011.15	  475.69
     21.2700	  611.00	  616.23	-1993.73	  475.12
     21.3700	  630.00	  615.83	-1974.33	  474.56
     21.4700	  602.00	  615.43	-2001.93	  474.00
     21.5700	  592.00	  615.05	-2011.55	  473.45
     21.6700	  584.00	  614.69	-2019.19	  472.91
     21.7700	  629.00	  614.34	-1973.84	  472.38
     21.8700	  650.00	  614.01	-1952.51	  471.85
     21.9700	  642.00	  613.69	-1960.19	  471.32
     22.0700	  624.00	  613.39	-1977.89	  470.81
     22.1700	  598.00	  613.11	-2003.61	  470.30
     22.2700	  645.00	  612.85	-1956.35	  469.79
     22.3700	  575.00	  612.61	-2026.11	  469.29
     22.4700	  627.00	  612.60	-1974.10	  468.80
     22.5700	  659.00	  612.41	-1941.91	  468.31
     22.6700	  665.00	  612.24	-1935.74	  467.83
     22.7700	  609.00	  612.10	-1991.60	  467.36
     22.8700	  572.00	  611.99	-2028.49	  466.89
     22.9700	  613.00	  611.92	-1987.42	  466.43
     23.0700	  680.00	  611.88	-1920.38	  465.97
     23.1700	  619.00	  611.88	-1981.38	  465.52
     23.2700	  622.00	  611.93	-1978.43	  465.07
     23.3700	  591.00	  612.04	-2009.54	  464.63
     23.4700	  612.00	  612.20	-1988.70	  464.20
     23.5700	  640.00	  612.44	-1960.94	  463.77
     23.6700	  617.00	  612.78	-1984.28	  463.35
     23.7700	  639.00	  613.23	-1962.73	  462.93
     23.8700	  697.00	  613.84	-1905.34	  462.52
     23.9700	  636.00	  614.68	-1967.18	  462.11
     24.0700	  624.00	  615.87	-1980.37	  461.71
     24.1700	  660.00	  617.58	-1946.08	  461.32
     24.2700	  620.00	  620.05	-1988.55	  460.92
     24.3700	  633.00	  623.78	-1979.28	  460.54
     24.4700	  655.00	  629.13	-1962.63	  460.16
     24.5700	  641.00	  636.42	-1983.92	  459.79
     24.6700	  665.00	  645.65	-1969.15	  459.42
     24.7700	  673.00	  656.21	-1971.71	  459.05
     24.8700	  669.00	  666.57	-1986.07	  458.69
     24.9700	  717.00	  673.96	-1945.46	  458.34
     25.0700	  712.00	  674.88	-1951.38	  457.99
     25.1700	  695.00	  668.16	-1961.66	  457.65
     25.2700	  652.00	  657.35	-1993.85	  457.31
     25.3700	  662.00	  647.01	-1973.51	  456.97
     25.4700	  636.00	  639.38	-1991.88	  456.65
     25.5700	  666.00	  634.60	-1957.10	  456.32
     25.6700	  608.00	  632.21	-2012.71	  456.00
     25.7700	  630.00	  631.56	-1990.06	  455.69
     25.8700	  692.00	  632.09	-1928.59	  455.38
     25.9700	  699.00	  633.43	-1922.93	  455.07
     26.0700	  639.00	  635.41	-1984.91	  454.77
     26.1700	  667.00	  637.96	-1959.46	  454.48
     26.2700	  639.00	  641.09	-1990.59	  454.19
     26.3700	  602.00	  644.83	-2031.33	  453.90
     26.4700	  672.00	  649.29	-1965.79	  453.62
     26.5700	  617.00	  654.55	-2026.05	  453.34
     26.6700	  681.00	  660.80	-1968.30	  453.07
     26.7700	  688.00	  668.22	-1968.72	  452.80
     26.8700	  671.00	  677.10	-1994.60	  452.54
     26.9700	  659.00	  687.80	-2017.30	  452.28
     27.0700	  711.00	  700.85	-1978.35	  452.02
     27.1700	  733.00	  716.94	-1972.44	  451.77
     27.2700	  679.00	  737.12	-2046.62	  451.53
     27.3700	  752.00	  763.06	-1999.56	  451.29
     27.4700	  727.00	  797.87	-2059.37	  451.05
     27.5700	  780.00	  848.21	-2056.71	  450.81
     27.6700	  789.00	  928.72	-2128.22	  450.58
     27.7700	  901.00	 1069.15	-2156.65	  450.36
     27.8700	 1048.00	 1322.65	-2263.15	  450.14
     27.9700	 1414.00	 1769.63	-2344.13	  449.92
     28.0700	 1876.00	 2504.27	-2616.77	  449.71
     28.1700	 3176.00	 3588.20	-2400.70	  449.50
     28.2700	 5178.00	 4960.24	-1770.74	  449.29
     28.3700	 7098.00	 6321.15	-1211.65	  449.09
     28.4700	 7954.00	 7103.38	-1137.88	  448.90
     28.5700	 7502.00	 6763.70	-1250.20	  448.70
     28.6700	 5475.00	 5538.15	-2051.65	  448.51
     28.7700	 4096.00	 4330.90	-2223.40	  448.33
     28.8700	 3356.00	 3703.99	-2336.49	  448.14
     28.9700	 3706.00	 3689.45	-1971.95	  447.97
     29.0700	 4292.00	 3992.45	-1688.95	  447.79
     29.1700	 4547.00	 4180.06	-1621.56	  447.62
     29.2700	 4113.00	 3888.04	-1763.54	  447.45
     29.3700	 3087.00	 3145.40	-2046.90	  447.29
     29.4700	 2213.00	 2321.04	-2096.54	  447.13
     29.5700	 1501.00	 1673.00	-2160.50	  446.97
     29.6700	 1110.00	 1256.42	-2134.92	  446.82
     29.7700	 1012.00	 1022.17	-1998.67	  446.67
     29.8700	  831.00	  897.53	-2055.03	  446.52
     29.9700	  806.00	  828.01	-2010.51	  446.38
     30.0700	  754.00	  784.38	-2018.88	  446.24
     30.1700	  789.00	  753.93	-1953.43	  446.11
     30.2700	  698.00	  731.53	-2022.03	  445.97
     30.3700	  753.00	  715.09	-1950.59	  445.85
     30.4700	  663.00	  703.96	-2029.46	  445.72
     30.5700	  754.00	  698.49	-1932.99	  445.60
     30.6700	  685.00	  700.00	-2003.50	  445.48
     30.7700	  659.00	  710.23	-2039.73	  445.36
     30.8700	  705.00	  730.04	-2013.54	  445.25
     30.9700	  748.00	  757.42	-1997.92	  445.14
     31.0700	  804.00	  785.76	-1970.26	  445.03
     31.1700	  793.00	  803.24	-1998.74	  444.93
     31.2700	  809.00	  796.65	-1976.15	  444.83
     31.3700	  824.00	  764.66	-1929.16	  444.73
     31.4700	  720.00	  722.72	-1991.22	  444.64
     31.5700	  738.00	  685.55	-1936.05	  444.54
     31.6700	  678.00	  658.59	-1969.09	  444.46
     31.7700	  707.00	  641.34	-1922.84	  444.37
     31.8700	  655.00	  631.00	-1964.50	  444.29
     31.9700	  692.00	  624.76	-1921.26	  444.21
     32.0700	  672.00	  620.71	-1937.21	  444.13
     32.1700	  667.00	  617.84	-1939.34	  444.05
     32.2700	  607.00	  615.69	-1997.19	  443.98
     32.3700	  612.00	  614.06	-1990.56	  443.91
     32.4700	  616.00	  612.86	-1985.36	  443.85
     32.5700	  615.00	  612.03	-1985.53	  443.78
     32.6700	  653.00	  611.57	-1947.07	  443.72
     32.7700	  621.00	  611.49	-1978.99	  443.67
     32.8700	  659.00	  611.80	-1941.30	  443.61
     32.9700	  638.00	  612.60	-1963.10	  443.56
     33.0700	  630.00	  613.91	-1972.41	  443.51
     33.1700	  624.00	  615.92	-1980.42	  443.46
     33.2700	  614.00	  618.90	-1993.40	  443.41
     33.3700	  662.00	  623.37	-1949.87	  443.37
     33.4700	  612.00	  630.36	-2006.86	  443.33
     33.5700	  632.00	  641.88	-1998.38	  443.29
     33.6700	  690.00	  661.46	-1959.96	  443.26
     33.7700	  719.00	  694.55	-1964.05	  443.22
     33.8700	  740.00	  747.75	-1996.25	  443.19
     33.9700	  865.00	  825.92	-1949.42	  443.16
     34.0700	  995.00	  926.75	-1920.25	  443.14
     34.1700	 1086.00	 1035.29	-1937.79	  443.11
     34.2700	 1253.00	 1121.30	-1856.80	  443.09
     34.3700	 1295.00	 1145.42	-1838.92	  443.07
     34.4700	 1164.00	 1087.85	-1912.35	  443.05
     34.5700	 1003.00	  977.62	-1963.12	  443.04
     34.6700	  876.00	  862.27	-1974.77	  443.03
     34.7700	  761.00	  768.97	-1996.47	  443.02
     34.8700	  704.00	  704.18	-1988.68	  443.01
     34.9700	  652.00	  663.76	-2000.26	  443.00
     35.0700	  698.00	  640.10	-1930.60	  443.00
     35.1700	  706.00	  626.32	-1908.82	  442.99
     35.2700	  674.00	  617.80	-1932.30	  442.99
     35.3700	  645.00	  612.05	-1955.55	  442.99
     35.4700	  587.00	  607.85	-2009.35	  443.00
     35.5700	  613.00	  604.63	-1980.13	  443.00
     35.6700	  620.00	  602.08	-1970.58	  443.01
     35.7700	  596.00	  600.03	-1992.53	  443.02
     35.8700	  582.00	  598.38	-2004.88	  443.03
     35.9700	  601.00	  597.03	-1984.53	  443.04
     36.0700	  596.00	  595.94	-1988.44	  443.06
     36.1700	  580.00	  595.05	-2003.55	  443.07
     36.2700	  605.00	  594.35	-1977.85	  443.09
     36.3700	  601.00	  593.80	-1981.30	  443.11
     36.4700	  618.00	  593.41	-1963.91	  443.13
     36.5700	  609.00	  593.15	-1972.65	  443.15
     36.6700	  632.00	  593.03	-1949.53	  443.18
     36.7700	  621.00	  593.06	-1960.56	  443.21
     36.8700	  599.00	  593.26	-1982.76	  443.23
     36.9700	  588.00	  593.70	-1994.20	  443.26
     37.0700	  598.00	  594.33	-1984.83	  443.30
     37.1700	  594.00	  596.00	-1990.50	  443.33
     37.2700	  599.00	  597.45	-1986.95	  443.36
     37.3700	  616.00	  599.65	-1972.15	  443.40
     37.4700	  582.00	  603.03	-2009.53	  443.44
     37.5700	  589.00	  608.36	-2007.86	  443.47
     37.6700	  628.00	  616.75	-1977.25	  443.52
     37.7700	  613.00	  629.63	-2005.13	  443.56
     37.8700	  588.00	  648.44	-2048.94	  443.60
     37.9700	  647.00	  673.82	-2015.32	  443.64
     38.0700	  738.00	  702.66	-1953.16	  443.69
     38.1700	  699.00	  734.31	-2023.81	  443.74
     38.2700	  760.00	  759.26	-1987.76	  443.79
     38.3700	  773.00	  767.43	-1982.93	  443.84
     38.4700	  748.00	  752.81	-1993.31	  443.89
     38.5700	  728.00	  721.37	-1981.87	  443.94
     38.6700	  649.00	  685.73	-2025.23	  443.99
     38.7700	  644.00	  654.69	-1999.19	  444.05
     38.8700	  577.00	  631.42	-2042.92	  444.11
     38.9700	  575.00	  615.74	-2029.24	  444.16
     39.0700	  585.00	  605.94	-2009.44	  444.22
     39.1700	  584.00	  600.04	-2004.54	  444.28
     39.2700	  588.00	  596.44	-1996.94	  444.34
     39.3700	  588.00	  594.12	-1994.62	  444.40
     39.4700	  599.00	  592.50	-1982.00	  444.47
     39.5700	  579.00	  590.27	-1999.77	  444.53
     39.6700	  584.00	  589.37	-1993.87	  444.60
     39.7700	  616.00	  588.67	-1961.17	  444.66
     39.8700	  627.00	  588.13	-1949.63	  444.73
     39.9700	  580.00	  587.70	-1996.20	  444.80
     40.0700	  585.00	  587.36	-1990.86	  444.87
     40.1700	  603.00	  587.11	-1972.61	  444.94
     40.2700	  585.00	  586.92	-1990.42	  445.01
     40.3700	  608.00	  586.79	-1967.29	  445.08
     40.4700	  564.00	  586.70	-2011.20	  445.15
     40.5700	  596.00	  586.66	-1979.16	  445.23
     40.6700	  575.00	  586.66	-2000.16	  445.30
     40.7700	  630.00	  586.70	-1945.20	  445.38
     40.8700	  612.00	  587.30	-1963.80	  445.45
     40.9700	  608.00	  587.42	-1967.92	  445.53
     41.0700	  602.00	  587.58	-1974.08	  445.61
     41.1700	  587.00	  587.79	-1989.29	  445.68
     41.2700	  557.00	  588.04	-2019.54	  445.76
     41.3700	  559.00	  588.34	-2017.84	  445.84
     41.4700	  581.00	  588.76	-1996.26	  445.92
     41.5700	  536.00	  589.20	-2041.70	  446.01
     41.6700	  589.00	  589.74	-1989.24	  446.09
     41.7700	  589.00	  590.40	-1989.90	  446.17
     41.8700	  599.00	  591.22	-1980.72	  446.25
     41.9700	  619.00	  592.30	-1961.80	  446.34
     42.0700	  598.00	  593.78	-1984.28	  446.42
     42.1700	  580.00	  595.96	-2004.46	  446.51
     42.2700	  566.00	  599.34	-2021.84	  446.59
     42.3700	  609.00	  604.64	-1984.14	  446.68
     42.4700	  588.00	  612.96	-2013.46	  446.77
     42.5700	  640.00	  625.22	-1973.72	  446.85
     42.6700	  593.00	  641.95	-2037.45	  446.94
     42.7700	  645.00	  662.41	-2005.91	  447.03
     42.8700	  678.00	  683.87	-1994.37	  447.12
     42.9700	  704.00	  701.09	-1985.59	  447.21
     43.0700	  687.00	  707.56	-2009.06	  447.30
     43.1700	  698.00	  699.89	-1990.40	  447.39
     43.2700	  616.00	  681.61	-2054.11	  447.48
     43.3700	  622.00	  659.82	-2026.32	  447.57
     43.4700	  634.00	  639.81	-1994.31	  447.66
     43.5700	  625.00	  624.09	-1987.59	  447.75
     43.6700	  592.00	  612.77	-2009.27	  447.85
     43.7700	  637.00	  605.34	-1956.84	  447.94
     43.8700	  612.00	  600.72	-1977.22	  448.03
     43.9700	  610.00	  597.92	-1976.42	  448.12
     44.0700	  608.00	  596.39	-1976.89	  448.22
     44.1700	  626.00	  595.30	-1957.80	  448.31
     44.2700	  640.00	  594.56	-1943.06	  448.40
     44.3700	  603.00	  594.05	-1979.55	  448.50
     44.4700	  651.00	  593.69	-1931.19	  448.59
     44.5700	  628.00	  593.44	-1953.94	  448.69
     44.6700	  596.00	  593.28	-1985.78	  448.78
     44.7700	  590.00	  593.20	-1991.70	  448.88
     44.8700	  614.00	  593.18	-1967.68	  448.97
     44.9700	  560.00	  593.20	-2021.70	  449.07
     45.0700	  618.00	  593.51	-1964.01	  449.16
     45.1700	  582.00	  593.64	-2000.14	  449.26
     45.2700	  629.00	  593.78	-1953.28	  449.35
     45.3700	  608.00	  593.95	-1974.45	  449.45
     45.4700	  540.00	  594.16	-2042.66	  449.55
     45.5700	  582.00	  594.40	-2000.90	  449.64
     45.6700	  620.00	  594.66	-1963.16	  449.74
     45.7700	  632.00	  594.96	-1951.46	  449.83
     45.8700	  587.00	  595.37	-1996.87	  449.93
     45.9700	  614.00	  595.73	-1970.23	  450.03
     46.0700	  619.00	  596.12	-1965.62	  450.12
     46.1700	  590.00	  596.55	-1995.05	  450.22
     46.2700	  584.00	  597.02	-2001.52	  450.31
     46.3700	  620.00	  597.53	-1966.03	  450.41
     46.4700	  633.00	  597.91	-1953.41	  450.51
     46.5700	  572.00	  598.53	-2015.03	  450.60
     46.6700	  588.00	  599.37	-1999.87	  450.70
     46.7700	  582.00	  600.15	-2006.65	  450.79
     46.8700	  604.00	  601.03	-1985.53	  450.89
     46.9700	  620.00	  602.03	-1970.53	  450.98
     47.0700	  588.00	  603.21	-2003.71	  451.08
     47.1700	  616.00	  604.63	-1977.13	  451.18
     47.2700	  605.00	  606.44	-1989.94	  451.27
     47.3700	  643.00	  608.90	-1954.40	  451.37
     47.4700	  564.00	  612.35	-2036.85	  451.46
     47.5700	  614.00	  617.38	-1991.88	  451.55
     47.6700	  607.00	  624.65	-2006.15	  451.65
     47.7700	  604.00	  634.79	-2019.29	  451.74
     47.8700	  644.00	  648.11	-1992.61	  451.84
     47.9700	  641.00	  664.23	-2011.73	  451.93
     48.0700	  728.00	  681.58	-1942.08	  452.02
     48.1700	  693.00	  697.09	-1992.59	  452.12
     48.2700	  666.00	  706.45	-2028.95	  452.21
     48.3700	  691.00	  706.40	-2003.90	  452.30
     48.4700	  678.00	  697.61	-2008.11	  452.40
     48.5700	  657.00	  684.25	-2015.75	  452.49
     48.6700	  658.00	  671.01	-2001.51	  452.58
     48.7700	  643.00	  659.66	-2005.16	  452.67
     48.8700	  657.00	  651.75	-1983.25	  452.76
     48.9700	  586.00	  647.47	-2049.97	  452.85
     49.0700	  604.00	  646.46	-2030.96	  452.94
     49.1700	  664.00	  648.24	-1972.74	  453.03
     49.2700	  647.00	  652.43	-1993.93	  453.12
     49.3700	  649.00	  658.97	-1998.47	  453.21
     49.4700	  641.00	  668.34	-2015.84	  453.30
     49.5700	  655.00	  682.09	-2015.59	  453.39
     49.6700	  685.00	  704.00	-2007.50	  453.48
     49.7700	  740.00	  742.13	-1990.63	  453.57
     49.8700	  813.00	  811.63	-1987.13	  453.65
     49.9700	  951.00	  936.37	-1973.87	  453.74
     50.0700	 1172.00	 1146.23	-1962.73	  453.83
     50.1700	 1563.00	 1466.28	-1891.78	  453.91
     50.2700	 1966.00	 1897.96	-1920.46	  454.00
     50.3700	 2550.00	 2398.13	-1836.63	  454.08
     50.4700	 2920.00	 2865.97	-1934.47	  454.17
     50.5700	 3180.00	 3155.49	-1963.99	  454.25
     50.6700	 3073.00	 3142.97	-2058.47	  454.34
     50.7700	 2753.00	 2831.67	-2067.17	  454.42
     50.8700	 2305.00	 2353.96	-2037.46	  454.50
     50.9700	 1744.00	 1858.96	-2103.46	  454.58
     51.0700	 1390.00	 1443.02	-2041.52	  454.67
     51.1700	 1088.00	 1143.01	-2043.51	  454.75
     51.2700	  930.00	  953.53	-2012.03	  454.83
     51.3700	  844.00	  846.74	-1991.24	  454.91
     51.4700	  815.00	  790.95	-1964.45	  454.98
     51.5700	  750.00	  761.08	-1999.58	  455.06
     51.6700	  810.00	  741.40	-1919.90	  455.14
     51.7700	  782.00	  724.83	-1931.33	  455.22
     51.8700	  674.00	  709.78	-2024.28	  455.30
     51.9700	  725.00	  696.71	-1960.21	  455.37
     52.0700	  651.00	  686.17	-2023.67	  455.45
     52.1700	  706.00	  678.20	-1960.70	  455.52
     52.2700	  686.00	  672.46	-1974.96	  455.60
     52.3700	  697.00	  668.31	-1959.81	  455.67
     52.4700	  667.00	  665.32	-1986.82	  455.74
     52.5700	  680.00	  663.48	-1971.98	  455.81
     52.6700	  644.00	  663.11	-2007.61	  455.89
     52.7700	  717.00	  664.74	-1936.24	  455.96
     52.8700	  617.00	  669.13	-2040.63	  456.03
     52.9700	  712.00	  677.52	-1954.02	  456.10
     53.0700	  679.00	  691.79	-2001.29	  456.16
     53.1700	  772.00	  714.67	-1931.17	  456.23
     53.2700	  770.00	  749.49	-1967.99	  456.30
     53.3700	  740.00	  799.62	-2048.12	  456.37
     53.4700	  887.00	  867.33	-1968.83	  456.43
     53.5700	  931.00	  952.30	-2009.80	  456.50
     53.6700	 1034.00	 1049.78	-2004.28	  456.56
     53.7700	 1172.00	 1148.62	-1965.12	  456.63
     53.8700	 1293.00	 1229.67	-1925.17	  456.69
     53.9700	 1376.00	 1269.80	-1882.30	  456.75
     54.0700	 1222.00	 1254.17	-2020.67	  456.81
     54.1700	 1226.00	 1188.66	-1951.16	  456.87
     54.2700	 1115.00	 1095.07	-1968.57	  456.93
     54.3700	  927.00	  995.61	-2057.11	  456.99
     54.4700	  891.00	  904.95	-2002.45	  457.05
     54.5700	  771.00	  830.30	-2047.80	  457.11
     54.6700	  708.00	  773.59	-2054.09	  457.16
     54.7700	  709.00	  733.38	-2012.88	  457.22
     54.8700	  709.00	  706.53	-1986.03	  457.27
     54.9700	  708.00	  689.50	-1970.00	  457.33
     55.0700	  695.00	  679.17	-1972.67	  457.38
     55.1700	  645.00	  673.21	-2016.71	  457.43
     55.2700	  648.00	  670.10	-2010.60	  457.48
     55.3700	  647.00	  668.95	-2010.45	  457.53
     55.4700	  658.00	  669.27	-1999.77	  457.58
     55.5700	  642.00	  670.86	-2017.36	  457.63
     55.6700	  731.00	  673.68	-1931.18	  457.68
     55.7700	  677.00	  677.81	-1989.31	  457.73
     55.8700	  691.00	  683.45	-1980.95	  457.77
     55.9700	  701.00	  691.03	-1978.53	  457.82
     56.0700	  714.00	  701.36	-1975.86	  457.86
     56.1700	  688.00	  716.02	-2016.52	  457.91
     56.2700	  704.00	  737.93	-2022.43	  457.95
     56.3700	  710.00	  772.18	-2050.68	  457.99
     56.4700	  815.00	  826.78	-2000.28	  458.03
     56.5700	  917.00	  912.96	-1984.46	  458.07
     56.6700	 1036.00	 1044.06	-1996.56	  458.11
     56.7700	 1174.00	 1232.51	-2047.01	  458.15
     56.8700	 1546.00	 1484.58	-1927.08	  458.19
     56.9700	 1794.00	 1794.20	-1988.70	  458.22
     57.0700	 2180.00	 2136.64	-1945.14	  458.26
     57.1700	 2547.00	 2463.28	-1904.78	  458.29
     57.2700	 2775.00	 2702.25	-1915.75	  458.33
     57.3700	 2770.00	 2779.92	-1998.42	  458.36
     57.4700	 2550.00	 2667.16	-2105.66	  458.39
     57.5700	 2398.00	 2405.03	-1995.53	  458.42
     57.6700	 1968.00	 2071.14	-2091.64	  458.45
     57.7700	 1703.00	 1734.13	-2019.63	  458.48
     57.8700	 1306.00	 1437.55	-2120.05	  458.51
     57.9700	 1069.00	 1201.89	-2121.39	  458.53
     58.0700	  985.00	 1030.35	-2033.85	  458.56
     58.1700	  908.00	  915.46	-1995.96	  458.58
     58.2700	  820.00	  845.41	-2013.91	  458.61
     58.3700	  816.00	  809.03	-1981.53	  458.63
     58.4700	  828.00	  798.65	-1959.15	  458.65
     58.5700	  764.00	  810.45	-2034.95	  458.67
     58.6700	  845.00	  843.39	-1986.89	  458.69
     58.7700	  894.00	  897.39	-1991.89	  458.71
     58.8700	  916.00	  970.80	-2043.30	  458.73
     58.9700	  982.00	 1058.64	-2065.14	  458.75
     59.0700	 1208.00	 1151.23	-1931.73	  458.76
     59.1700	 1258.00	 1235.24	-1965.74	  458.78
     59.2700	 1260.00	 1298.97	-2027.47	  458.79
     59.3700	 1277.00	 1338.04	-2049.54	  458.80
     59.4700	 1361.00	 1352.89	-1980.39	  458.81
     59.5700	 1407.00	 1343.21	-1924.71	  458.82
     59.6700	 1242.00	 1310.56	-2057.06	  458.83
     59.7700	 1235.00	 1264.48	-2017.98	  458.84
     59.8700	 1296.00	 1219.93	-1912.43	  458.85
     59.9700	 1238.00	 1190.03	-1940.53	  458.86
     60.0700	 1269.00	 1183.13	-1902.63	  458.86
     60.1700	 1236.00	 1204.50	-1957.00	  458.87
     60.2700	 1336.00	 1257.54	-1910.04	  458.87
     60.3700	 1436.00	 1341.29	-1893.79	  458.87
     60.4700	 1500.00	 1446.36	-1934.86	  458.87
     60.5700	 1646.00	 1552.59	-1895.09	  458.87
     60.6700	 1688.00	 1630.25	-1930.75	  458.87
     60.7700	 1604.00	 1648.53	-2033.03	  458.87
     60.8700	 1491.00	 1592.84	-2090.34	  458.87
     60.9700	 1406.00	 1475.85	-2058.35	  458.86
     61.0700	 1327.00	 1327.02	-1988.52	  458.86
     61.1700	 1170.00	 1174.99	-1993.49	  458.85
     61.2700	  983.00	 1039.73	-2045.23	  458.85
     61.3700	  924.00	  932.10	-1996.60	  458.84
     61.4700	  840.00	  855.49	-2003.99	  458.83
     61.5700	  781.00	  808.63	-2016.13	  458.82
     61.6700	  806.00	  788.59	-1971.09	  458.81
     61.7700	  792.00	  793.39	-1989.89	  458.79
     61.8700	  872.00	  823.42	-1939.92	  458.78
     61.9700	  913.00	  881.38	-1956.88	  458.77
     62.0700	 1017.00	  970.67	-1942.17	  458.75
     62.1700	 1170.00	 1092.94	-1911.44	  458.73
     62.2700	 1278.00	 1244.98	-1955.48	  458.72
     62.3700	 1463.00	 1416.09	-1941.59	  458.70
     62.4700	 1665.00	 1586.09	-1909.59	  458.68
     62.5700	 1711.00	 1725.05	-2002.55	  458.66
     62.6700	 1775.00	 1798.76	-2012.26	  458.63
     62.7700	 1743.00	 1784.12	-2029.62	  458.61
     62.8700	 1675.00	 1685.55	-1999.05	  458.59
     62.9700	 1447.00	 1531.50	-2073.00	  458.56
     63.0700	 1287.00	 1356.24	-2057.74	  458.53
     63.1700	 1165.00	 1186.82	-2010.32	  458.51
     63.2700	 1002.00	 1040.21	-2026.71	  458.48
     63.3700	  935.00	  924.15	-1977.65	  458.45
     63.4700	  825.00	  839.23	-2002.73	  458.42
     63.5700	  853.00	  781.50	-1917.00	  458.39
     63.6700	  742.00	  744.98	-1991.48	  458.35
     63.7700	  736.00	  723.75	-1976.25	  458.32
     63.8700	  733.00	  713.21	-1968.71	  458.28
     63.9700	  710.00	  710.60	-1989.10	  458.25
     64.0700	  782.00	  714.87	-1921.37	  458.21
     64.1700	  730.00	  726.10	-1984.60	  458.17
     64.2700	  752.00	  747.22	-1983.72	  458.13
     64.3700	  795.00	  780.68	-1974.18	  458.09
     64.4700	  901.00	  829.98	-1917.48	  458.05
     64.5700	  972.00	  898.41	-1914.91	  458.01
     64.6700	 1035.00	  987.91	-1941.41	  457.96
     64.7700	 1102.00	 1097.73	-1984.23	  457.92
     64.8700	 1211.00	 1222.89	-2000.39	  457.87
     64.9700	 1394.00	 1352.97	-1947.47	  457.83
     65.0700	 1497.00	 1471.96	-1963.46	  457.78
     65.1700	 1538.00	 1560.86	-2011.36	  457.73
     65.2700	 1661.00	 1602.70	-1930.20	  457.68
     65.3700	 1477.00	 1588.37	-2099.87	  457.63
     65.4700	 1422.00	 1521.24	-2087.74	  457.58
     65.5700	 1401.00	 1416.21	-2003.71	  457.52
     65.6700	 1206.00	 1293.72	-2076.22	  457.47
     65.7700	 1134.00	 1171.41	-2025.91	  457.41
     65.8700	 1010.00	 1060.30	-2038.80	  457.36
     65.9700	  954.00	  966.13	-2000.63	  457.30
     66.0700	  833.00	  890.24	-2045.74	  457.24
     66.1700	  789.00	  831.59	-2031.09	  457.18
     66.2700	  743.00	  787.82	-2033.32	  457.12
     66.3700	  764.00	  756.04	-1980.54	  457.06
     66.4700	  655.00	  733.51	-2067.01	  457.00
     66.5700	  696.00	  717.85	-2010.35	  456.93
     66.6700	  708.00	  707.26	-1987.76	  456.87
     66.7700	  685.00	  700.55	-2004.05	  456.80
     66.8700	  673.00	  696.94	-2012.44	  456.73
     66.9700	  669.00	  696.05	-2015.55	  456.67
     67.0700	  668.00	  697.76	-2018.26	  456.60
     67.1700	  716.00	  702.34	-1974.84	  456.53
     67.2700	  727.00	  710.65	-1972.15	  456.46
     67.3700	  730.00	  724.03	-1982.53	  456.38
     67.4700	  730.00	  745.23	-2003.73	  456.31
     67.5700	  776.00	  777.99	-1990.49	  456.24
     67.6700	  826.00	  827.87	-1990.37	  456.16
     67.7700	  929.00	  901.63	-1961.13	  456.08
     67.8700	 1006.00	 1006.60	-1989.10	  456.01
     67.9700	 1264.00	 1149.13	-1873.63	  455.93
     68.0700	 1341.00	 1332.63	-1980.13	  455.85
     68.1700	 1552.00	 1555.17	-1991.67	  455.77
     68.2700	 1797.00	 1807.06	-1998.56	  455.69
     68.3700	 2127.00	 2069.25	-1930.75	  455.60
     68.4700	 2323.00	 2312.04	-1977.54	  455.52
     68.5700	 2461.00	 2496.52	-2024.02	  455.44
     68.6700	 2494.00	 2583.19	-2077.69	  455.35
     68.7700	 2584.00	 2549.61	-1954.11	  455.26
     68.8700	 2299.00	 2404.64	-2094.14	  455.18
     68.9700	 2230.00	 2182.58	-1941.08	  455.09
     69.0700	 1942.00	 1924.41	-1970.91	  455.00
     69.1700	 1690.00	 1664.40	-1962.90	  454.91
     69.2700	 1466.00	 1426.41	-1948.91	  454.82
     69.3700	 1322.00	 1224.16	-1890.66	  454.72
     69.4700	 1071.00	 1062.76	-1980.26	  454.63
     69.5700	 1011.00	  940.95	-1918.45	  454.54
     69.6700	  942.00	  853.38	-1899.88	  454.44
     69.7700	  787.00	  792.93	-1994.43	  454.34
     69.8700	  789.00	  752.40	-1951.90	  454.25
     69.9700	  808.00	  725.64	-1906.14	  454.15
     70.0700	  733.00	  707.96	-1963.46	  454.05
     70.1700	  755.00	  696.10	-1929.60	  453.95
     70.2700	  670.00	  687.96	-2006.46	  453.85
     70.3700	  673.00	  682.28	-1997.78	  453.74
     70.4700	  753.00	  678.33	-1913.83	  453.64
     70.5700	  704.00	  675.73	-1960.23	  453.54
     70.6700	  706.00	  674.28	-1956.78	  453.43
     70.7700	  720.00	  673.91	-1942.41	  453.33
     70.8700	  713.00	  674.70	-1950.20	  453.22
     70.9700	  654.00	  676.84	-2011.34	  453.11
     71.0700	  702.00	  680.52	-1967.02	  453.00
     71.1700	  698.00	  686.85	-1977.35	  452.89
     71.2700	  673.00	  696.77	-2012.27	  452.78
     71.3700	  787.00	  712.05	-1913.55	  452.67
     71.4700	  770.00	  735.21	-1953.71	  452.56
     71.5700	  792.00	  769.59	-1966.09	  452.44
     71.6700	  859.00	  819.25	-1948.75	  452.33
     71.7700	  887.00	  888.47	-1989.97	  452.22
     71.8700	 1039.00	  981.11	-1930.61	  452.10
     71.9700	 1104.00	 1099.52	-1984.02	  451.98
     72.0700	 1308.00	 1243.38	-1923.88	  451.86
     72.1700	 1393.00	 1408.52	-2004.02	  451.75
     72.2700	 1548.00	 1585.89	-2026.39	  451.63
     72.3700	 1804.00	 1760.86	-1945.36	  451.51
     72.4700	 1944.00	 1913.05	-1957.55	  451.38
     72.5700	 1894.00	 2018.35	-2112.85	  451.26
     72.6700	 2004.00	 2055.51	-2040.01	  451.14
     72.7700	 1985.00	 2015.85	-2019.35	  451.01
     72.8700	 1826.00	 1908.49	-2070.99	  450.89
     72.9700	 1688.00	 1755.69	-2056.19	  450.76
     73.0700	 1563.00	 1580.07	-2005.57	  450.64
     73.1700	 1379.00	 1402.47	-2011.97	  450.51
     73.2700	 1179.00	 1237.33	-2046.83	  450.38
     73.3700	 1039.00	 1093.42	-2042.92	  450.25
     73.4700	  941.00	  974.76	-2022.26	  450.12
     73.5700	  864.00	  881.53	-2006.03	  449.99
     73.6700	  824.00	  811.32	-1975.82	  449.86
     73.7700	  804.00	  760.36	-1944.86	  449.73
     73.8700	  732.00	  724.43	-1980.93	  449.60
     73.9700	  734.00	  699.61	-1954.11	  449.46
     74.0700	  706.00	  682.16	-1964.66	  449.33
     74.1700	  687.00	  670.70	-1972.20	  449.19
     74.2700	  666.00	  663.03	-1985.53	  449.06
     74.3700	  674.00	  658.10	-1972.60	  448.92
     74.4700	  612.00	  655.24	-2031.74	  448.78
     74.5700	  670.00	  654.02	-1972.52	  448.64
     74.6700	  701.00	  654.16	-1941.66	  448.50
     74.7700	  649.00	  655.39	-1994.89	  448.36
     74.8700	  638.00	  657.41	-2007.91	  448.22
     74.9700	  658.00	  659.77	-1990.27	  448.08
     75.0700	  670.00	  662.13	-1980.63	  447.94
     75.1700	  669.00	  663.90	-1983.40	  447.79
     75.2700	  684.00	  664.55	-1969.05	  447.65
     75.3700	  713.00	  663.84	-1939.34	  447.51
     75.4700	  705.00	  661.90	-1945.40	  447.36
     75.5700	  745.00	  659.25	-1902.75	  447.22
     75.6700	  656.00	  656.60	-1989.10	  447.07
     75.7700	  720.00	  654.70	-1923.20	  446.92
     75.8700	  678.00	  654.54	-1965.04	  446.77
     75.9700	  661.00	  656.94	-1984.44	  446.62
     76.0700	  687.00	  662.87	-1964.37	  446.48
     76.1700	  721.00	  673.35	-1940.85	  446.32
     76.2700	  708.00	  689.39	-1969.89	  446.17
     76.3700	  699.00	  711.85	-2001.35	  446.02
     76.4700	  690.00	  741.29	-2039.79	  445.87
     76.5700	  783.00	  777.70	-1983.20	  445.72
     76.6700	  839.00	  820.36	-1969.86	  445.56
     76.7700	  857.00	  867.52	-1999.02	  445.41
     76.8700	  865.00	  916.36	-2039.86	  445.26
     76.9700	  997.00	  962.77	-1954.27	  445.10
     77.0700	  933.00	 1001.55	-2057.05	  444.94
     77.1700	 1003.00	 1026.96	-2012.46	  444.79
     77.2700	  998.00	 1034.37	-2024.87	  444.63
     77.3700	 1049.00	 1022.18	-1961.68	  444.47
     77.4700	  947.00	  992.72	-2034.22	  444.31
     77.5700	  915.00	  951.01	-2024.51	  444.16
     77.6700	  884.00	  902.54	-2007.04	  444.00
     77.7700	  889.00	  852.68	-1952.18	  443.84
     77.8700	  816.00	  805.02	-1977.52	  443.68
     77.9700	  690.00	  762.12	-2060.62	  443.51
     78.0700	  729.00	  725.38	-1984.88	  443.35
     78.1700	  712.00	  695.31	-1971.81	  443.19
     78.2700	  614.00	  671.66	-2046.16	  443.03
     78.3700	  642.00	  653.74	-2000.24	  442.86
     78.4700	  652.00	  640.57	-1977.07	  442.70
     78.5700	  645.00	  631.15	-1974.65	  442.54
     78.6700	  614.00	  624.52	-1999.02	  442.37
     78.7700	  612.00	  619.92	-1996.42	  442.21
     78.8700	  642.00	  616.68	-1963.18	  442.04
     78.9700	  585.00	  614.49	-2017.99	  441.87
     79.0700	  615.00	  613.00	-1986.50	  441.71
     79.1700	  639.00	  612.01	-1961.51	  441.54
     79.2700	  606.00	  611.43	-1993.93	  441.37
     79.3700	  619.00	  611.20	-1980.70	  441.20
     79.4700	  636.00	  611.32	-1963.82	  441.03
     79.5700	  654.00	  611.79	-1946.29	  440.86
     79.6700	  639.00	  612.65	-1962.15	  440.69
     79.7700	  584.00	  613.98	-2018.48	  440.52
     79.8700	  622.00	  615.89	-1982.39	  440.35
     79.9700	  629.00	  618.55	-1978.05	  440.18
     80.0700	  587.00	  622.23	-2023.73	  440.01
     80.1700	  631.00	  627.33	-1984.83	  439.84
     80.2700	  621.00	  634.46	-2001.96	  439.67
     80.3700	  669.00	  644.48	-1963.98	  439.49
     80.4700	  665.00	  658.32	-1981.82	  439.32
     80.5700	  729.00	  677.94	-1937.44	  439.15
     80.6700	  740.00	  704.82	-1953.32	  438.97
     80.7700	  816.00	  740.78	-1913.28	  438.80
     80.8700	  827.00	  787.50	-1949.00	  438.62
     80.9700	  820.00	  846.17	-2014.68	  438.45
     81.0700	  971.00	  917.11	-1934.61	  438.27
     81.1700	 1037.00	  999.27	-1950.77	  438.10
     81.2700	 1142.00	 1089.83	-1936.33	  437.92
     81.3700	 1187.00	 1184.06	-1985.56	  437.75
     81.4700	 1305.00	 1275.34	-1958.84	  437.57
     81.5700	 1387.00	 1355.75	-1957.25	  437.39
     81.6700	 1400.00	 1417.45	-2005.95	  437.22
     81.7700	 1435.00	 1454.51	-2008.01	  437.04
     81.8700	 1438.00	 1464.29	-2014.79	  436.86
     81.9700	 1486.00	 1447.36	-1949.86	  436.68
     82.0700	 1416.00	 1406.79	-1979.29	  436.50
     82.1700	 1361.00	 1347.63	-1975.13	  436.33
     82.2700	 1301.00	 1276.17	-1963.67	  436.15
     82.3700	 1215.00	 1198.69	-1972.19	  435.97
     82.4700	 1086.00	 1120.58	-2023.08	  435.79
     82.5700	  998.00	 1045.91	-2036.41	  435.61
     82.6700	  930.00	  977.56	-2036.06	  435.43
     82.7700	  910.00	  917.18	-1995.68	  435.25
     82.8700	  849.00	  865.24	-2004.74	  435.07
     82.9700	  811.00	  821.20	-1998.70	  434.89
     83.0700	  761.00	  784.00	-2011.50	  434.71
     83.1700	  790.00	  752.46	-1950.96	  434.53
     83.2700	  694.00	  725.70	-2020.20	  434.35
     83.3700	  719.00	  703.16	-1972.66	  434.17
     83.4700	  628.00	  684.51	-2045.01	  433.99
     83.5700	  733.00	  669.56	-1925.06	  433.80
     83.6700	  631.00	  658.19	-2015.69	  433.62
     83.7700	  648.00	  650.29	-1990.79	  433.44
     83.8700	  603.00	  645.72	-2031.22	  433.26
     83.9700	  625.00	  644.24	-2007.74	  433.08
     84.0700	  611.00	  645.50	-2023.00	  432.90
     84.1700	  612.00	  648.90	-2025.40	  432.71
     84.2700	  607.00	  654.06	-2035.56	  432.53
     84.3700	  629.00	  660.11	-2019.61	  432.35
     84.4700	  635.00	  666.15	-2019.65	  432.17
     84.5700	  683.00	  671.15	-1976.65	  431.98
     84.6700	  617.00	  674.33	-2045.83	  431.80
     84.7700	  750.00	  674.87	-1913.37	  431.62
     84.8700	  624.00	  672.47	-2036.97	  431.44
     84.9700	  652.00	  667.32	-2003.82	  431.25
     85.0700	  669.00	  660.05	-1979.55	  431.07
     85.1700	  621.00	  651.45	-2018.95	  430.89
     85.2700	  611.00	  642.33	-2019.83	  430.71
     85.3700	  610.00	  633.38	-2011.88	  430.52
     85.4700	  617.00	  625.17	-1996.67	  430.34
     85.5700	  604.00	  618.11	-2002.61	  430.16
     85.6700	  593.00	  612.48	-2007.98	  429.98
     85.7700	  586.00	  608.44	-2010.94	  429.79
     85.8700	  612.00	  606.07	-1982.57	  429.61
     85.9700	  593.00	  605.41	-2000.91	  429.43
     86.0700	  604.00	  606.45	-1990.95	  429.25
     86.1700	  586.00	  609.17	-2011.67	  429.06
     86.2700	  629.00	  613.52	-1973.02	  428.88
     86.3700	  603.00	  619.43	-2004.93	  428.70
     86.4700	  599.00	  626.79	-2016.29	  428.52
     86.5700	  611.00	  635.41	-2012.91	  428.34
     86.6700	  604.00	  645.05	-2029.55	  428.15
     86.7700	  611.00	  655.36	-2032.86	  427.97
     86.8700	  670.00	  665.93	-1984.43	  427.79
     86.9700	  681.00	  676.24	-1983.74	  427.61
     87.0700	  636.00	  685.84	-2038.34	  427.43
     87.1700	  701.00	  694.36	-1981.86	  427.25
     87.2700	  733.00	  701.70	-1957.20	  427.07
     87.3700	  660.00	  708.07	-2036.57	  426.89
     87.4700	  686.00	  713.92	-2016.42	  426.71
     87.5700	  769.00	  719.71	-1939.21	  426.53
     87.6700	  745.00	  725.75	-1969.25	  426.35
     87.7700	  691.00	  732.08	-2029.58	  426.17
     87.8700	  806.00	  738.45	-1920.95	  425.99
     87.9700	  690.00	  744.31	-2042.81	  425.81
     88.0700	  747.00	  748.82	-1990.32	  425.63
     88.1700	  740.00	  751.03	-1999.53	  425.45
     88.2700	  782.00	  750.08	-1956.58	  425.27
     88.3700	  774.00	  745.52	-1960.02	  425.09
     88.4700	  764.00	  737.47	-1961.97	  424.91
     88.5700	  706.00	  726.53	-2009.03	  424.73
     88.6700	  697.00	  713.61	-2005.11	  424.56
     88.7700	  708.00	  699.71	-1980.21	  424.38
     88.8700	  673.00	  685.32	-2000.82	  424.20
     88.9700	  667.00	  672.08	-1993.58	  424.03
     89.0700	  687.00	  660.23	-1961.73	  423.85
     89.1700	  673.00	  650.24	-1965.74	  423.67
     89.2700	  683.00	  642.40	-1947.90	  423.50
     89.3700	  640.00	  636.82	-1985.32	  423.32
     89.4700	  641.00	  633.44	-1980.94	  423.15
     89.5700	  667.00	  632.06	-1953.56	  422.97
     89.6700	  679.00	  632.33	-1941.83	  422.80
     89.7700	  676.00	  633.80	-1946.30	  422.63
     89.8700	  653.00	  635.96	-1971.46	  422.45
     89.9700	  677.00	  638.22	-1949.72	  422.28
     90.0700	  714.00	  640.01	-1914.51	  422.11
     90.1700	  709.00	  640.79	-1920.29	  421.94
     90.2700	  702.00	  640.20	-1926.70	  421.76
     90.3700	  670.00	  638.10	-1956.60	  421.59
     90.4700	  681.00	  634.58	-1942.08	  421.42
     90.5700	  645.00	  629.96	-1973.46	  421.25
     90.6700	  655.00	  624.62	-1958.12	  421.08
     90.7700	  636.00	  618.93	-1971.43	  420.91
     90.8700	  659.00	  613.24	-1942.74	  420.74
     90.9700	  649.00	  607.84	-1947.34	  420.58
     91.0700	  586.00	  602.92	-2005.42	  420.41
     91.1700	  594.00	  598.62	-1993.12	  420.24
     91.2700	  656.00	  595.02	-1927.52	  420.07
     91.3700	  600.00	  592.13	-1980.63	  419.91
     91.4700	  589.00	  589.94	-1989.44	  419.74
     91.5700	  612.00	  588.38	-1964.88	  419.58
     91.6700	  611.00	  587.42	-1964.92	  419.41
     91.7700	  567.00	  586.99	-2008.49	  419.25
     91.8700	  615.00	  587.07	-1960.57	  419.09
     91.9700	  595.00	  587.64	-1981.14	  418.92
     92.0700	  551.00	  588.72	-2026.22	  418.76
     92.1700	  667.00	  590.40	-1911.90	  418.60
     92.2700	  611.00	  592.77	-1970.27	  418.44
     92.3700	  594.00	  595.98	-1990.48	  418.28
     92.4700	  602.00	  600.23	-1986.73	  418.12
     92.5700	  592.00	  605.73	-2002.23	  417.96
     92.6700	  594.00	  612.72	-2007.22	  417.80
     92.7700	  613.00	  621.42	-1996.92	  417.65
     92.8700	  639.00	  632.05	-1981.55	  417.49
     92.9700	  636.00	  644.75	-1997.25	  417.33
     93.0700	  661.00	  659.61	-1987.11	  417.18
     93.1700	  631.00	  676.59	-2034.09	  417.02
     93.2700	  659.00	  695.53	-2025.03	  416.87
     93.3700	  644.00	  716.13	-2060.63	  416.72
     93.4700	  720.00	  737.92	-2006.42	  416.56
     93.5700	  751.00	  760.28	-1997.78	  416.41
     93.6700	  778.00	  782.45	-1992.95	  416.26
     93.7700	  697.00	  803.57	-2095.07	  416.11
     93.8700	  756.00	  822.84	-2055.34	  415.96
     93.9700	  773.00	  839.70	-2055.20	  415.81
     94.0700	  743.00	  854.03	-2099.53	  415.66
     94.1700	  836.00	  866.16	-2018.66	  415.52
     94.2700	  850.00	  876.81	-2015.31	  415.37
     94.3700	  826.00	  886.51	-2049.01	  415.23
     94.4700	  902.00	  896.64	-1983.14	  415.08
     94.5700	  815.00	  907.45	-2080.95	  414.94
     94.6700	  883.00	  919.31	-2024.81	  414.79
     94.7700	  937.00	  932.44	-1983.94	  414.65
     94.8700	  997.00	  947.01	-1938.51	  414.51
     94.9700	  972.00	  963.12	-1979.62	  414.37
     95.0700	  998.00	  980.71	-1971.21	  414.23
     95.1700	  978.00	  999.42	-2009.92	  414.09
     95.2700	  958.00	 1018.46	-2048.96	  413.96
     95.3700	 1037.00	 1036.54	-1988.04	  413.82
     95.4700	 1049.00	 1051.93	-1991.43	  413.68
     95.5700	 1063.00	 1062.68	-1988.18	  413.55
     95.6700	 1001.00	 1066.83	-2054.33	  413.42
     95.7700	 1015.00	 1062.95	-2036.45	  413.28
     95.8700	 1073.00	 1050.41	-1965.91	  413.15
     95.9700	  989.00	 1029.67	-2029.17	  413.02
     96.0700	 1013.00	 1002.18	-1977.68	  412.89
     96.1700	  948.00	  969.99	-2010.49	  412.76
     96.2700	  933.00	  935.47	-1990.97	  412.64
     96.3700	  869.00	  900.98	-2020.48	  412.51
     96.4700	  873.00	  868.79	-1984.29	  412.38
     96.5700	  865.00	  840.92	-1964.42	  412.26
     96.6700	  856.00	  819.17	-1951.67	  412.14
     96.7700	  875.00	  804.99	-1918.49	  412.01
     96.8700	  811.00	  799.58	-1977.08	  411.89
     96.9700	  856.00	  803.89	-1936.39	  411.77
     97.0700	  828.00	  818.58	-1979.08	  411.65
     97.1700	  867.00	  844.07	-1965.57	  411.53
     97.2700	  943.00	  880.53	-1926.03	  411.42
     97.3700	  919.00	  927.81	-1997.31	  411.30
     97.4700	 1008.00	  985.39	-1965.89	  411.19
     97.5700	 1061.00	 1052.35	-1979.85	  411.07
     97.6700	 1188.00	 1127.22	-1927.72	  410.96
     97.7700	 1218.00	 1207.95	-1978.45	  410.85
     97.8700	 1359.00	 1291.92	-1921.42	  410.74
     97.9700	 1337.00	 1375.79	-2027.29	  410.63
     98.0700	 1433.00	 1455.65	-2011.15	  410.52
     98.1700	 1508.00	 1527.07	-2007.57	  410.42
     98.2700	 1502.00	 1585.39	-2071.89	  410.31
     98.3700	 1601.00	 1626.32	-2013.82	  410.21
     98.4700	 1617.00	 1646.65	-2018.15	  410.10
     98.5700	 1606.00	 1644.94	-2027.44	  410.00
     98.6700	 1588.00	 1621.89	-2022.39	  409.90
     98.7700	 1504.00	 1580.07	-2064.57	  409.80
     98.8700	 1507.00	 1523.32	-2004.82	  409.70
     98.9700	 1430.00	 1456.07	-2014.57	  409.61
     99.0700	 1334.00	 1382.73	-2037.23	  409.51
     99.1700	 1314.00	 1307.46	-1981.96	  409.42
     99.2700	 1237.00	 1233.97	-1985.47	  409.33
     99.3700	 1226.00	 1165.41	-1927.91	  409.23
     99.4700	 1155.00	 1104.43	-1937.93	  409.14
     99.5700	 1091.00	 1053.17	-1950.67	  409.06
     99.6700	 1069.00	 1013.35	-1932.85	  408.97
     99.7700	 1011.00	  986.28	-1963.78	  408.88
     99.8700	 1014.00	  972.91	-1947.41	  408.80
     99.9700	  991.00	  973.87	-1971.37	  408.71
    100.0700	 1029.00	  989.47	-1948.97	  408.63
    100.1700	 1054.00	 1019.74	-1954.24	  408.55
    100.2700	 1071.00	 1064.39	-1981.89	  408.47
    100.3700	 1115.00	 1122.81	-1996.31	  408.39
    100.4700	 1245.00	 1193.98	-1937.48	  408.32
    100.5700	 1317.00	 1276.49	-1947.99	  408.24
    100.6700	 1448.00	 1368.46	-1908.96	  408.17
    100.7700	 1482.00	 1467.45	-1973.95	  408.10
    100.8700	 1600.00	 1570.45	-1958.95	  408.03
    100.9700	 1622.00	 1674.15	-2040.65	  407.96
    101.0700	 1765.00	 1774.63	-1998.13	  407.89
    101.1700	 1812.00	 1867.98	-2044.48	  407.83
    101.2700	 1936.00	 1950.60	-2003.10	  407.76
    101.3700	 1959.00	 2019.63	-2049.13	  407.70
    101.4700	 2059.00	 2073.14	-2002.64	  407.64
    101.5700	 2016.00	 2110.07	-2082.57	  407.58
    101.6700	 2049.00	 2129.95	-2069.45	  407.52
    101.7700	 2216.00	 2132.60	-1905.10	  407.46
    101.8700	 2149.00	 2117.98	-1957.48	  407.40
    101.9700	 2176.00	 2086.54	-1899.04	  407.35
    102.0700	 2083.00	 2039.48	-1944.98	  407.30
    102.1700	 2035.00	 1979.07	-1932.57	  407.25
    102.2700	 1919.00	 1908.60	-1978.10	  407.20
    102.3700	 1880.00	 1831.98	-1940.48	  407.15
    102.4700	 1809.00	 1753.25	-1932.75	  407.11
    102.5700	 1731.00	 1676.09	-1933.59	  407.06
    102.6700	 1655.00	 1603.47	-1936.97	  407.02
    102.7700	 1635.00	 1537.52	-1891.02	  406.98
    102.8700	 1548.00	 1479.53	-1920.03	  406.94
    102.9700	 1475.00	 1429.97	-1943.47	  406.90
    103.0700	 1443.00	 1388.58	-1934.08	  406.86
    103.1700	 1336.00	 1354.42	-2006.92	  406.83
    103.2700	 1371.00	 1326.02	-1943.52	  406.80
    103.3700	 1263.00	 1301.44	-2026.94	  406.77
    103.4700	 1322.00	 1278.52	-1945.02	  406.74
    103.5700	 1245.00	 1255.11	-1998.61	  406.71
    103.6700	 1204.00	 1229.35	-2013.85	  406.68
    103.7700	 1210.00	 1199.98	-1978.48	  406.66
    103.8700	 1107.00	 1166.46	-2047.96	  406.64
    103.9700	 1141.00	 1128.97	-1976.47	  406.62
    104.0700	 1117.00	 1088.22	-1959.72	  406.60
    104.1700	 1042.00	 1045.25	-1991.75	  406.58
    104.2700	 1055.00	 1001.19	-1934.69	  406.56
    104.3700	 1008.00	  957.15	-1937.65	  406.55
    104.4700	  938.00	  914.16	-1964.66	  406.54
    104.5700	  922.00	  873.08	-1939.58	  406.53
    104.6700	  863.00	  834.61	-1960.11	  406.52
    104.7700	  842.00	  799.26	-1945.76	  406.51
    104.8700	  860.00	  767.39	-1895.89	  406.51
    104.9700	  766.00	  739.10	-1961.60	  406.51
    105.0700	  690.00	  714.55	-2013.05	  406.51
    105.1700	  713.00	  693.57	-1969.07	  406.51
    105.2700	  731.00	  675.94	-1933.44	  406.51
    105.3700	  661.00	  661.38	-1988.88	  406.51
    105.4700	  638.00	  649.58	-2000.08	  406.52
    105.5700	  683.00	  640.20	-1945.70	  406.53
    105.6700	  649.00	  632.86	-1972.36	  406.54
    105.7700	  625.00	  627.36	-1990.86	  406.55
    105.8700	  627.00	  623.40	-1984.90	  406.57
    105.9700	  608.00	  620.75	-2001.25	  406.58
    106.0700	  646.00	  619.26	-1961.76	  406.60
    106.1700	  612.00	  618.80	-1995.30	  406.62
    106.2700	  607.00	  619.30	-2000.80	  406.64
    106.3700	  575.00	  620.74	-2034.24	  406.67
    106.4700	  631.00	  623.11	-1980.61	  406.69
    106.5700	  645.00	  626.45	-1969.95	  406.72
    106.6700	  664.00	  630.80	-1955.30	  406.75
    106.7700	  603.00	  636.23	-2021.73	  406.78
    106.8700	  656.00	  642.82	-1975.32	  406.82
    106.9700	  641.00	  650.61	-1998.11	  406.85
    107.0700	  647.00	  659.64	-2001.14	  406.89
    107.1700	  688.00	  669.91	-1970.41	  406.93
    107.2700	  691.00	  681.37	-1978.87	  406.97
    107.3700	  724.00	  693.91	-1958.41	  407.02
    107.4700	  683.00	  707.34	-2012.84	  407.06
    107.5700	  687.00	  721.45	-2022.95	  407.11
    107.6700	  696.00	  735.92	-2028.42	  407.16
    107.7700	  761.00	  750.38	-1977.88	  407.21
    107.8700	  795.00	  764.42	-1957.92	  407.27
    107.9700	  745.00	  777.56	-2021.06	  407.32
    108.0700	  723.00	  789.34	-2054.84	  407.38
    108.1700	  753.00	  799.31	-2034.81	  407.44
    108.2700	  719.00	  807.09	-2076.59	  407.51
    108.3700	  723.00	  812.52	-2078.02	  407.57
    108.4700	  804.00	  815.57	-2000.07	  407.64
    108.5700	  781.00	  816.41	-2023.91	  407.71
    108.6700	  794.00	  815.43	-2009.93	  407.78
    108.7700	  839.00	  813.10	-1962.60	  407.85
    108.8700	  798.00	  809.96	-2000.46	  407.93
    108.9700	  734.00	  806.50	-2061.00	  408.01
    109.0700	  770.00	  803.19	-2021.69	  408.09
    109.1700	  721.00	  800.35	-2067.85	  408.17
    109.2700	  731.00	  798.25	-2055.75	  408.25
    109.3700	  793.00	  797.00	-1992.50	  408.34
    109.4700	  754.00	  796.62	-2031.12	  408.43
    109.5700	  766.00	  796.98	-2019.48	  408.52
    109.6700	  723.00	  797.85	-2063.35	  408.61
    109.7700	  753.00	  798.90	-2034.40	  408.71
    109.8700	  749.00	  799.72	-2039.22	  408.81
    109.9700	  735.00	  799.88	-2053.38	  408.91
    110.0700	  803.00	  798.92	-1984.42	  409.01
    110.1700	  746.00	  796.49	-2038.99	  409.11
    110.2700	  780.00	  792.35	-2000.85	  409.22
    110.3700	  723.00	  786.43	-2051.93	  409.33
    110.4700	  728.00	  778.80	-2039.30	  409.44
    110.5700	  739.00	  769.65	-2019.15	  409.56
    110.6700	  780.00	  759.29	-1967.79	  409.67
    110.7700	  700.00	  748.06	-2036.56	  409.79
    110.8700	  684.00	  736.31	-2040.81	  409.91
    110.9700	  662.00	  724.37	-2050.87	  410.04
    111.0700	  726.00	  712.54	-1975.04	  410.16
    111.1700	  694.00	  701.10	-1995.60	  410.29
    111.2700	  661.00	  690.25	-2017.75	  410.42
    111.3700	  706.00	  680.19	-1962.69	  410.55
    111.4700	  670.00	  671.04	-1989.54	  410.69
    111.5700	  656.00	  662.90	-1995.40	  410.83
    111.6700	  623.00	  655.82	-2021.32	  410.97
    111.7700	  677.00	  649.83	-1961.33	  411.11
    111.8700	  610.00	  644.89	-2023.39	  411.25
    111.9700	  653.00	  640.98	-1976.48	  411.40
    112.0700	  620.00	  638.03	-2006.53	  411.55
    112.1700	  611.00	  635.95	-2013.45	  411.70
    112.2700	  627.00	  634.65	-1996.15	  411.86
    112.3700	  624.00	  634.05	-1998.55	  412.01
    112.4700	  619.00	  634.03	-2003.53	  412.17
    112.5700	  626.00	  634.51	-1997.01	  412.33
    112.6700	  617.00	  635.38	-2006.88	  412.50
    112.7700	  617.00	  636.57	-2008.07	  412.67
    112.8700	  563.00	  638.00	-2063.50	  412.84
    112.9700	  597.00	  639.61	-2031.11	  413.01
    113.0700	  644.00	  641.34	-1985.84	  413.18
    113.1700	  605.00	  643.17	-2026.67	  413.36
    113.2700	  653.00	  645.09	-1980.59	  413.54
    113.3700	  625.00	  647.10	-2010.60	  413.72
    113.4700	  659.00	  649.22	-1978.72	  413.90
    113.5700	  613.00	  651.49	-2026.99	  414.09
    113.6700	  624.00	  653.96	-2018.46	  414.28
    113.7700	  592.00	  656.68	-2053.18	  414.47
    113.8700	  663.00	  659.72	-1985.22	  414.67
    113.9700	  667.00	  663.19	-1984.69	  414.86
    114.0700	  662.00	  667.17	-1993.67	  415.06
    114.1700	  695.00	  671.82	-1965.32	  415.27
    114.2700	  644.00	  677.30	-2021.80	  415.47
    114.3700	  659.00	  683.83	-2013.33	  415.68
    114.4700	  735.00	  691.70	-1945.20	  415.89
    114.5700	  672.00	  701.27	-2017.77	  416.10
    114.6700	  752.00	  713.01	-1949.51	  416.32
    114.7700	  729.00	  727.51	-1987.01	  416.53
    114.8700	  744.00	  745.53	-1990.03	  416.75
    114.9700	  759.00	  767.99	-1997.49	  416.98
    115.0700	  781.00	  796.03	-2003.53	  417.20
    115.1700	  892.00	  831.02	-1927.52	  417.43
    115.2700	  948.00	  874.57	-1915.07	  417.66
    115.3700	  975.00	  928.58	-1942.08	  417.90
    115.4700	 1156.00	  995.19	-1827.69	  418.13
    115.5700	 1156.00	 1076.81	-1909.31	  418.37
    115.6700	 1347.00	 1176.02	-1817.52	  418.61
    115.7700	 1474.00	 1295.53	-1810.03	  418.86
    115.8700	 1569.00	 1438.18	-1857.68	  419.11
    115.9700	 1851.00	 1606.64	-1744.14	  419.36
    116.0700	 2068.00	 1803.47	-1723.97	  419.61
    116.1700	 2216.00	 2030.79	-1803.29	  419.86
    116.2700	 2536.00	 2290.12	-1742.62	  420.12
    116.3700	 2806.00	 2582.36	-1764.86	  420.38
    116.4700	 3160.00	 2907.28	-1735.78	  420.65
    116.5700	 3504.00	 3263.74	-1748.24	  420.91
    116.6700	 3825.00	 3649.16	-1812.66	  421.18
    116.7700	 4210.00	 4059.59	-1838.09	  421.45
    116.8700	 4532.00	 4489.78	-1946.28	  421.73
    116.9700	 4931.00	 4932.87	-1990.37	  422.00
    117.0700	 5288.00	 5380.79	-2081.29	  422.28
    117.1700	 5662.00	 5823.99	-2150.49	  422.57
    117.2700	 6090.00	 6251.85	-2150.35	  422.85
    117.3700	 6540.00	 6653.06	-2101.56	  423.14
    117.4700	 6874.00	 7015.56	-2130.06	  423.43
    117.5700	 6974.00	 7327.59	-2342.09	  423.72
    117.6700	 7480.00	 7577.85	-2086.35	  424.02
    117.7700	 7447.00	 7756.63	-2298.13	  424.32
    117.8700	 7414.00	 7856.71	-2431.21	  424.62
    117.9700	 7545.00	 7873.98	-2317.48	  424.93
    118.0700	 7529.00	 7808.09	-2267.59	  425.23
    118.1700	 7463.00	 7662.39	-2187.89	  425.55
    118.2700	 7225.00	 7443.60	-2207.10	  425.86
    118.3700	 6989.00	 7160.90	-2160.40	  426.18
    118.4700	 6673.00	 6825.27	-2140.77	  426.49
    118.5700	 6136.00	 6448.30	-2300.80	  426.82
    118.6700	 5773.00	 6041.86	-2257.36	  427.14
    118.7700	 5505.00	 5617.40	-2100.90	  427.47
    118.8700	 5220.00	 5185.33	-1953.83	  427.80
    118.9700	 4810.00	 4755.26	-1933.76	  428.13
    119.0700	 4549.00	 4335.26	-1774.76	  428.47
    119.1700	 4207.00	 3932.20	-1713.70	  428.81
    119.2700	 3808.00	 3551.52	-1732.02	  429.15
    119.3700	 3510.00	 3197.03	-1675.53	  429.49
    119.4700	 3185.00	 2871.44	-1674.94	  429.84
    119.5700	 2866.00	 2576.02	-1698.52	  430.19
    119.6700	 2581.00	 2311.11	-1718.61	  430.55
    119.7700	 2390.00	 2076.16	-1674.66	  430.90
    119.8700	 2136.00	 1869.80	-1722.30	  431.26
    119.9700	 1924.00	 1690.27	-1754.77	  431.63
    120.0700	 1702.00	 1535.33	-1821.83	  431.99
    120.1700	 1560.00	 1402.63	-1831.13	  432.36
    120.2700	 1491.00	 1289.71	-1787.21	  432.73
    120.3700	 1353.00	 1194.10	-1829.60	  433.10
    120.4700	 1213.00	 1113.49	-1888.99	  433.48
    120.5700	 1185.00	 1045.70	-1849.20	  433.86
    120.6700	 1099.00	  988.78	-1878.28	  434.24
    120.7700	 1048.00	  941.01	-1881.51	  434.63
    120.8700	  995.00	  900.88	-1894.38	  435.02
    120.9700	  930.00	  867.14	-1925.64	  435.41
    121.0700	  885.00	  838.72	-1942.22	  435.80
    121.1700	  871.00	  814.75	-1932.25	  436.20
    121.2700	  816.00	  794.52	-1967.02	  436.60
    121.3700	  782.00	  777.44	-1983.94	  437.01
    121.4700	  775.00	  763.06	-1976.56	  437.41
    121.5700	  740.00	  751.01	-1999.51	  437.82
    121.6700	  745.00	  740.99	-1984.49	  438.23
    121.7700	  685.00	  732.78	-2036.28	  438.65
    121.8700	  728.00	  726.18	-1986.68	  439.07
    121.9700	  736.00	  721.04	-1973.54	  439.49
    122.0700	  729.00	  717.25	-1976.75	  439.91
    122.1700	  686.00	  714.71	-2017.21	  440.34
    122.2700	  642.00	  713.33	-2059.83	  440.77
    122.3700	  713.00	  713.04	-1988.54	  441.21
    122.4700	  719.00	  713.79	-1983.29	  441.64
    122.5700	  659.00	  715.51	-2045.01	  442.08
    122.6700	  706.00	  718.16	-2000.66	  442.53
    122.7700	  684.00	  721.68	-2026.18	  442.97
    122.8700	  685.00	  726.00	-2029.50	  443.42
    122.9700	  650.00	  731.07	-2069.57	  443.87
    123.0700	  713.00	  736.82	-2012.32	  444.33
    123.1700	  707.00	  743.16	-2024.66	  444.78
    123.2700	  685.00	  750.02	-2053.52	  445.24
    123.3700	  705.00	  757.28	-2040.78	  445.71
    123.4700	  749.00	  764.86	-2004.36	  446.18
    123.5700	  775.00	  772.64	-1986.14	  446.65
    123.6700	  750.00	  780.49	-2018.99	  447.12
    123.7700	  770.00	  788.29	-2006.79	  447.59
    123.8700	  776.00	  795.92	-2008.42	  448.07
    123.9700	  764.00	  803.24	-2027.74	  448.56
    124.0700	  714.00	  810.15	-2084.65	  449.04
    124.1700	  784.00	  816.55	-2021.05	  449.53
    124.2700	  775.00	  822.36	-2035.86	  450.02
    124.3700	  793.00	  827.53	-2023.03	  450.52
    124.4700	  788.00	  832.01	-2032.51	  451.01
    124.5700	  852.00	  835.87	-1972.37	  451.51
    124.6700	  775.00	  839.13	-2052.63	  452.02
    124.7700	  802.00	  841.82	-2028.32	  452.52
    124.8700	  845.00	  844.02	-1987.52	  453.03
    124.9700	  814.00	  589.05	-1763.55	  453.55
    125.0700	  844.00	  589.57	-1988.50	  454.06
    125.1700	  779.00	  590.08	-1988.50	  454.58
    125.2700	  806.00	  590.61	-1988.50	  455.10
    125.3700	  827.00	  591.13	-1988.50	  455.63
    125.4700	  790.00	  591.66	-1988.50	  456.16
    125.5700	  854.00	  592.19	-1988.50	  456.69
    125.6700	  799.00	  592.73	-1988.50	  457.23
    125.7700	  785.00	  593.26	-1988.50	  457.76
    125.8700	  767.00	  593.81	-1988.50	  458.30
    125.9700	  809.00	  594.35	-1988.50	  458.85
    126.0700	  770.00	  594.90	-1988.50	  459.40
    126.1700	  816.00	  595.45	-1988.50	  459.95
    126.2700	  825.00	  596.00	-1988.50	  460.50
    126.3700	  776.00	  596.56	-1988.50	  461.06
    126.4700	  744.00	  597.12	-1988.50	  461.61
    126.5700	  714.00	  597.68	-1988.50	  462.18
    126.6700	  749.00	  598.25	-1988.50	  462.74
    126.7700	  758.00	  598.81	-1988.50	  463.31
    126.8700	  686.00	  599.39	-1988.50	  463.88
    126.9700	  693.00	  599.96	-1988.50	  464.46
    127.0700	  722.00	  600.54	-1988.50	  465.04
    127.1700	  722.00	  601.12	-1988.50	  465.62
    127.2700	  661.00	  601.71	-1988.50	  466.20
    127.3700	  635.00	  602.29	-1988.50	  466.79
    127.4700	  628.00	  602.88	-1988.50	  467.38
    127.5700	  694.00	  603.48	-1988.50	  467.98
    127.6700	  601.00	  604.08	-1988.50	  468.57
    127.7700	  692.00	  604.68	-1988.50	  469.17
    127.8700	  646.00	  605.28	-1988.50	  469.78
    127.9700	  652.00	  605.89	-1988.50	  470.38
    128.0700	  651.00	  606.50	-1988.50	  470.99
    128.1700	  666.00	  607.11	-1988.50	  471.61
    128.2700	  663.00	  607.72	-1988.50	  472.22
    128.3700	  665.00	  608.34	-1988.50	  472.84
    128.4700	  675.00	  608.97	-1988.50	  473.46
    128.5700	    0.00	  609.59	-1988.50	  474.09
    128.6700	    0.00	  610.22	-1988.50	  474.72
     12.4355	        	        	        	        	       0	(  0  0  2)	  0  1
     12.4355	        	        	        	        	    -497	(  0  0  2)	  0  1
     25.1131	        	        	        	        	       0	(  0  0  4)	  0  1
     25.1131	        	        	        	        	    -497	(  0  0  4)	  0  1
     28.5610	        	        	        	        	       0	(  1  0  0)	  0  1
     28.5610	        	        	        	        	    -497	(  1  0  0)	  0  1
     29.2641	        	        	        	        	       0	(  1  0  1)	  0  1
     29.2641	        	        	        	        	    -497	(  1  0  1)	  0  1
     31.2872	        	        	        	        	       0	(  1  0  2)	  0  1
     31.2872	        	        	        	        	    -497	(  1  0  2)	  0  1
     34.4217	        	        	        	        	       0	(  1  0  3)	  0  1
     34.4217	        	        	        	        	    -497	(  1  0  3)	  0  1
     38.1140	        	        	        	        	       0	(  0  0  6)	  0  1
     38.1140	        	        	        	        	    -497	(  0  0  6)	  0  1
     38.4325	        	        	        	        	       0	(  1  0  4)	  0  1
     38.4325	        	        	        	        	    -497	(  1  0  4)	  0  1
     43.1225	        	        	        	        	       0	(  1  0  5)	  0  1
     43.1225	        	        	        	        	    -497	(  1  0  5)	  0  1
     48.3523	        	        	        	        	       0	(  1  0  6)	  0  1
     48.3523	        	        	        	        	    -497	(  1  0  6)	  0  1
     50.6620	        	        	        	        	       0	(  1  1  0)	  0  1
     50.6620	        	        	        	        	    -497	(  1  1  0)	  0  1
     51.6502	        	        	        	        	       0	(  0  0  8)	  0  1
     51.6502	        	        	        	        	    -497	(  0  0  8)	  0  1
     52.4015	        	        	        	        	       0	(  1  1  2)	  0  1
     52.4015	        	        	        	        	    -497	(  1  1  2)	  0  1
     54.0341	        	        	        	        	       0	(  1  0  7)	  0  1
     54.0341	        	        	        	        	    -497	(  1  0  7)	  0  1
     57.3973	        	        	        	        	       0	(  1  1  4)	  0  1
     57.3973	        	        	        	        	    -497	(  1  1  4)	  0  1
     59.2302	        	        	        	        	       0	(  2  0  0)	  0  1
     59.2302	        	        	        	        	    -497	(  2  0  0)	  0  1
     59.6258	        	        	        	        	       0	(  2  0  1)	  0  1
     59.6258	        	        	        	        	    -497	(  2  0  1)	  0  1
     60.1222	        	        	        	        	       0	(  1  0  8)	  0  1
     60.1222	        	        	        	        	    -497	(  1  0  8)	  0  1
     60.8031	        	        	        	        	       0	(  2  0  2)	  0  1
     60.8031	        	        	        	        	    -497	(  2  0  2)	  0  1
     62.7360	        	        	        	        	       0	(  2  0  3)	  0  1
     62.7360	        	        	        	        	    -497	(  2  0  3)	  0  1
     65.1702	        	        	        	        	       0	(  1  1  6)	  0  1
     65.1702	        	        	        	        	    -497	(  1  1  6)	  0  1
     65.3877	        	        	        	        	       0	(  2  0  4)	  0  1
     65.3877	        	        	        	        	    -497	(  2  0  4)	  0  1
     66.0159	        	        	        	        	       0	(  0  0 10)	  0  1
     66.0159	        	        	        	        	    -497	(  0  0 10)	  0  1
     66.6036	        	        	        	        	       0	(  1  0  9)	  0  1
     66.6036	        	        	        	        	    -497	(  1  0  9)	  0  1
     68.7175	        	        	        	        	       0	(  2  0  5)	  0  1
     68.7175	        	        	        	        	    -497	(  2  0  5)	  0  1
     72.6889	        	        	        	        	       0	(  2  0  6)	  0  1
     72.6889	        	        	        	        	    -497	(  2  0  6)	  0  1
     73.4940	        	        	        	        	       0	(  1  0 10)	  0  1
     73.4940	        	        	        	        	    -497	(  1  0 10)	  0  1
     75.3193	        	        	        	        	       0	(  1  1  8)	  0  1
     75.3193	        	        	        	        	    -497	(  1  1  8)	  0  1
     77.2763	        	        	        	        	       0	(  2  0  7)	  0  1
     77.2763	        	        	        	        	    -497	(  2  0  7)	  0  1
     80.8382	        	        	        	        	       0	(  1  0 11)	  0  1
     80.8382	        	        	        	        	    -497	(  1  0 11)	  0  1
     81.6727	        	        	        	        	       0	(  0  0 12)	  0  1
     81.6727	        	        	        	        	    -497	(  0  0 12)	  0  1
     81.6929	        	        	        	        	       0	(  2  1  0)	  0  1
     81.6929	        	        	        	        	    -497	(  2  1  0)	  0  1
     82.0371	        	        	        	        	       0	(  2  1  1)	  0  1
     82.0371	        	        	        	        	    -497	(  2  1  1)	  0  1
     82.4707	        	        	        	        	       0	(  2  0  8)	  0  1
     82.4707	        	        	        	        	    -497	(  2  0  8)	  0  1
     83.0683	        	        	        	        	       0	(  2  1  2)	  0  1
     83.0683	        	        	        	        	    -497	(  2  1  2)	  0  1
     84.7821	        	        	        	        	       0	(  2  1  3)	  0  1
     84.7821	        	        	        	        	    -497	(  2  1  3)	  0  1
     87.1740	        	        	        	        	       0	(  2  1  4)	  0  1
     87.1740	        	        	        	        	    -497	(  2  1  4)	  0  1
     87.7475	        	        	        	        	       0	(  1  1 10)	  0  1
     87.7475	        	        	        	        	    -497	(  1  1 10)	  0  1
     88.2863	        	        	        	        	       0	(  2  0  9)	  0  1
     88.2863	        	        	        	        	    -497	(  2  0  9)	  0  1
     88.7161	        	        	        	        	       0	(  1  0 12)	  0  1
     88.7161	        	        	        	        	    -497	(  1  0 12)	  0  1
     90.2429	        	        	        	        	       0	(  2  1  5)	  0  1
     90.2429	        	        	        	        	    -497	(  2  1  5)	  0  1
     93.9960	        	        	        	        	       0	(  2  1  6)	  0  1
     93.9960	        	        	        	        	    -497	(  2  1  6)	  0  1
     94.7690	        	        	        	        	       0	(  2  0 10)	  0  1
     94.7690	        	        	        	        	    -497	(  2  0 10)	  0  1
     95.7615	        	        	        	        	       0	(  3  0  0)	  0  1
     95.7615	        	        	        	        	    -497	(  3  0  0)	  0  1
     96.1043	        	        	        	        	       0	(  3  0  1)	  0  1
     96.1043	        	        	        	        	    -497	(  3  0  1)	  0  1
     97.1340	        	        	        	        	       0	(  3  0  2)	  0  1
     97.1340	        	        	        	        	    -497	(  3  0  2)	  0  1
     97.2583	        	        	        	        	       0	(  1  0 13)	  0  1
     97.2583	        	        	        	        	    -497	(  1  0 13)	  0  1
     98.4556	        	        	        	        	       0	(  2  1  7)	  0  1
     98.4556	        	        	        	        	    -497	(  2  1  7)	  0  1
     98.8555	        	        	        	        	       0	(  3  0  3)	  0  1
     98.8555	        	        	        	        	    -497	(  3  0  3)	  0  1
     99.4709	        	        	        	        	       0	(  0  0 14)	  0  1
     99.4709	        	        	        	        	    -497	(  0  0 14)	  0  1
    101.2798	        	        	        	        	       0	(  3  0  4)	  0  1
    101.2798	        	        	        	        	    -497	(  3  0  4)	  0  1
    102.0113	        	        	        	        	       0	(  2  0 11)	  0  1
    102.0113	        	        	        	        	    -497	(  2  0 11)	  0  1
    102.8564	        	        	        	        	       0	(  1  1 12)	  0  1
    102.8564	        	        	        	        	    -497	(  1  1 12)	  0  1
    103.6689	        	        	        	        	       0	(  2  1  8)	  0  1
    103.6689	        	        	        	        	    -497	(  2  1  8)	  0  1
    104.4281	        	        	        	        	       0	(  3  0  5)	  0  1
    104.4281	        	        	        	        	    -497	(  3  0  5)	  0  1
    106.6802	        	        	        	        	       0	(  1  0 14)	  0  1
    106.6802	        	        	        	        	    -497	(  1  0 14)	  0  1
    108.3390	        	        	        	        	       0	(  3  0  6)	  0  1
    108.3390	        	        	        	        	    -497	(  3  0  6)	  0  1
    109.7246	        	        	        	        	       0	(  2  1  9)	  0  1
    109.7246	        	        	        	        	    -497	(  2  1  9)	  0  1
    110.1820	        	        	        	        	       0	(  2  0 12)	  0  1
    110.1820	        	        	        	        	    -497	(  2  0 12)	  0  1
    113.0806	        	        	        	        	       0	(  3  0  7)	  0  1
    113.0806	        	        	        	        	    -497	(  3  0  7)	  0  1
    116.7830	        	        	        	        	       0	(  2  1 10)	  0  1
    116.7830	        	        	        	        	    -497	(  2  1 10)	  0  1
    117.3659	        	        	        	        	       0	(  1  0 15)	  0  1
    117.3659	        	        	        	        	    -497	(  1  0 15)	  0  1
    117.8964	        	        	        	        	       0	(  2  2  0)	  0  1
    117.8964	        	        	        	        	    -497	(  2  2  0)	  0  1
    118.7726	        	        	        	        	       0	(  3  0  8)	  0  1
    118.7726	        	        	        	        	    -497	(  3  0  8)	  0  1
    119.4519	        	        	        	        	       0	(  2  2  2)	  0  1
    119.4519	        	        	        	        	    -497	(  2  2  2)	  0  1
    119.5937	        	        	        	        	       0	(  2  0 13)	  0  1
    119.5937	        	        	        	        	    -497	(  2  0 13)	  0  1
    121.4477	        	        	        	        	       0	(  0  0 16)	  0  1
    121.4477	        	        	        	        	    -497	(  0  0 16)	  0  1
    122.1460	        	        	        	        	       0	(  1  1 14)	  0  1
    122.1460	        	        	        	        	    -497	(  1  1 14)	  0  1
    124.2742	        	        	        	        	       0	(  2  2  4)	  0  1
    124.2742	        	        	        	        	    -497	(  2  2  4)	  0  1
    125.1464	        	        	        	        	       0	(  2  1 11)	  0  1
    125.1464	        	        	        	        	    -497	(  2  1 11)	  0  1
    125.6318	        	        	        	        	       0	(  3  0  9)	  0  1
    125.6318	        	        	        	        	    -497	(  3  0  9)	  0  1
    126.1876	        	        	        	        	       0	(  3  1  0)	  0  1
    126.1876	        	        	        	        	    -497	(  3  1  0)	  0  1
    126.6116	        	        	        	        	       0	(  3  1  1)	  0  1
    126.6116	        	        	        	        	    -497	(  3  1  1)	  0  1
    127.8980	        	        	        	        	       0	(  3  1  2)	  0  1
    127.8980	        	        	        	        	    -497	(  3  1  2)	  0  1
    130.0939	        	        	        	        	       0	(  3  1  3)	  0  1
    130.0939	        	        	        	        	    -497	(  3  1  3)	  0  1
    130.1129	        	        	        	        	       0	(  1  0 16)	  0  1
    130.1129	        	        	        	        	    -497	(  1  0 16)	  0  1
    130.8937	        	        	        	        	       0	(  2  0 14)	  0  1
    130.8937	        	        	        	        	    -497	(  2  0 14)	  0  1
    133.0229	        	        	        	        	       0	(  2  2  6)	  0  1
    133.0229	        	        	        	        	    -497	(  2  2  6)	  0  1
    133.2943	        	        	        	        	       0	(  3  1  4)	  0  1
    133.2943	        	        	        	        	    -497	(  3  1  4)	  0  1
    134.0879	        	        	        	        	       0	(  3  0 10)	  0  1
    134.0879	        	        	        	        	    -497	(  3  0 10)	  0  1
    135.4539	        	        	        	        	       0	(  2  1 12)	  0  1
    135.4539	        	        	        	        	    -497	(  2  1 12)	  0  1
    137.6782	        	        	        	        	       0	(  3  1  5)	  0  1
    137.6782	        	        	        	        	    -497	(  3  1  5)	  0  1
    143.6048	        	        	        	        	       0	(  3  1  6)	  0  1
    143.6048	        	        	        	        	    -497	(  3  1  6)	  0  1
    145.1778	        	        	        	        	       0	(  3  0 11)	  0  1
    145.1778	        	        	        	        	    -497	(  3  0 11)	  0  1
    145.8421	        	        	        	        	       0	(  2  0 15)	  0  1
    145.8421	        	        	        	        	    -497	(  2  0 15)	  0  1
    147.2432	        	        	        	        	       0	(  1  0 17)	  0  1
    147.2432	        	        	        	        	    -497	(  1  0 17)	  0  1
    148.1238	        	        	        	        	       0	(  2  2  8)	  0  1
    148.1238	        	        	        	        	    -497	(  2  2  8)	  0  1
    149.5107	        	        	        	        	       0	(  2  1 13)	  0  1
    149.5107	        	        	        	        	    -497	(  2  1 13)	  0  1
    151.9427	        	        	        	        	       0	(  3  1  7)	  0  1
    151.9427	        	        	        	        	    -497	(  3  1  7)	  0  1
    152.8294	        	        	        	        	       0	(  1  1 16)	  0  1
    152.8294	        	        	        	        	    -497	(  1  1 16)	  0  1
    157.9758	        	        	        	        	       0	(  0  0 18)	  0  1
    157.9758	        	        	        	        	    -497	(  0  0 18)	  0  1
    163.3772	        	        	        	        	       0	(  3  0 12)	  0  1
    163.3772	        	        	        	        	    -497	(  3  0 12)	  0  1
    163.4474	        	        	        	        	       0	(  4  0  0)	  0  1
    163.4474	        	        	        	        	    -497	(  4  0  0)	  0  1
    164.6963	        	        	        	        	       0	(  4  0  1)	  0  1
    164.6963	        	        	        	        	    -497	(  4  0  1)	  0  1
    166.4306	        	        	        	        	       0	(  3  1  8)	  0  1
    166.4306	        	        	        	        	    -497	(  3  1  8)	  0  1
    169.2683	        	        	        	        	       0	(  4  0  2)	  0  1
    169.2683	        	        	        	        	    -497	(  4  0  2)	  0  1
