MSG Master    CELL:    5.89620   5.89620  23.16872   90.0000   90.0000  120.0000   SPGR: P 63/m m c             TEMP:    737.65
  1   1280     2.52000     0.00000    -0.13261     0.00000     0.00000    0
    96     0     2
       0.00000      10.00000
     125.00000     130.00000
 2Theta	Yobs	Ycal	Yobs-Ycal	Backg	Posr	(hkl)	K
      0.7700	    0.00	  445.47	-1815.25	  334.10
      0.8700	    0.00	  448.29	-1815.25	  336.92
      0.9700	   50.00	  451.08	-1815.25	  339.72
      1.0700	   49.00	  453.85	-1815.25	  342.48
      1.1700	   43.00	  456.59	-1815.25	  345.22
      1.2700	   39.00	  459.30	-1815.25	  347.93
      1.3700	   48.00	  461.98	-1815.25	  350.61
      1.4700	   93.00	  464.64	-1815.25	  353.27
      1.5700	  305.00	  467.27	-1815.25	  355.90
      1.6700	  462.00	  469.87	-1815.25	  358.50
      1.7700	  604.00	  472.45	-1815.25	  361.08
      1.8700	  684.00	  475.00	-1815.25	  363.63
      1.9700	  753.00	  477.52	-1815.25	  366.15
      2.0700	  758.00	  480.02	-1815.25	  368.65
      2.1700	  706.00	  482.49	-1815.25	  371.12
      2.2700	  777.00	  484.93	-1815.25	  373.57
      2.3700	  716.00	  487.35	-1815.25	  375.99
      2.4700	  739.00	  489.75	-1815.25	  378.38
      2.5700	  660.00	  492.12	-1815.25	  380.75
      2.6700	  680.00	  494.46	-1815.25	  383.10
      2.7700	  656.00	  496.78	-1815.25	  385.42
      2.8700	  613.00	  499.08	-1815.25	  387.71
      2.9700	  577.00	  501.35	-1815.25	  389.98
      3.0700	  626.00	  503.59	-1815.25	  392.22
      3.1700	  603.00	  505.81	-1815.25	  394.45
      3.2700	  720.00	  508.01	-1815.25	  396.64
      3.3700	  852.00	  510.18	-1815.25	  398.81
      3.4700	  926.00	  512.33	-1815.25	  400.96
      3.5700	 1149.00	  514.45	-1815.25	  403.09
      3.6700	 1254.00	  516.55	-1815.25	  405.19
      3.7700	 1343.00	  518.63	-1815.25	  407.26
      3.8700	 1393.00	  520.68	-1815.25	  409.32
      3.9700	 1457.00	  522.72	-1815.25	  411.35
      4.0700	 1506.00	  524.72	-1815.25	  413.36
      4.1700	 1593.00	  526.71	-1815.25	  415.34
      4.2700	 1558.00	  528.67	-1815.25	  417.30
      4.3700	 1594.00	  530.61	-1815.25	  419.24
      4.4700	 1500.00	  532.52	-1815.25	  421.16
      4.5700	 1478.00	  534.42	-1815.25	  423.05
      4.6700	 1406.00	  536.29	-1815.25	  424.92
      4.7700	 1306.00	  538.14	-1815.25	  426.77
      4.8700	 1303.00	  539.96	-1815.25	  428.60
      4.9700	 1256.00	  541.77	-1815.25	  430.40
      5.0700	 1253.00	  543.55	-1815.25	  432.19
      5.1700	 1199.00	  545.32	-1815.25	  433.95
      5.2700	 1173.00	  547.06	-1815.25	  435.69
      5.3700	 1104.00	  548.78	-1815.25	  437.41
      5.4700	 1119.00	  550.47	-1815.25	  439.11
      5.5700	 1093.00	  552.15	-1815.25	  440.78
      5.6700	 1087.00	  553.81	-1815.25	  442.44
      5.7700	 1021.00	  555.44	-1815.25	  444.07
      5.8700	 1083.00	  557.06	-1815.25	  445.69
      5.9700	 1017.00	  558.65	-1815.25	  447.28
      6.0700	  962.00	  560.22	-1815.25	  448.86
      6.1700	  971.00	  561.78	-1815.25	  450.41
      6.2700	  942.00	  563.31	-1815.25	  451.94
      6.3700	  986.00	  564.82	-1815.25	  453.46
      6.4700	  882.00	  566.32	-1815.25	  454.95
      6.5700	  893.00	  567.79	-1815.25	  456.42
      6.6700	  915.00	  569.25	-1815.25	  457.88
      6.7700	  869.00	  570.68	-1815.25	  459.31
      6.8700	  878.00	  572.10	-1815.25	  460.73
      6.9700	  839.00	  573.49	-1815.25	  462.13
      7.0700	  840.00	  574.87	-1815.25	  463.50
      7.1700	  766.00	  576.23	-1815.25	  464.86
      7.2700	  768.00	  577.57	-1815.25	  466.20
      7.3700	  774.00	  578.89	-1815.25	  467.52
      7.4700	  784.00	  580.19	-1815.25	  468.82
      7.5700	  801.00	  581.47	-1815.25	  470.11
      7.6700	  716.00	  582.74	-1815.25	  471.37
      7.7700	  747.00	  583.99	-1815.25	  472.62
      7.8700	  784.00	  585.21	-1815.25	  473.85
      7.9700	  759.00	  586.43	-1815.25	  475.06
      8.0700	  740.00	  587.62	-1815.25	  476.25
      8.1700	  764.00	  588.79	-1815.25	  477.43
      8.2700	  734.00	  589.95	-1815.25	  478.59
      8.3700	  702.00	  591.09	-1815.25	  479.73
      8.4700	  735.00	  592.22	-1815.25	  480.85
      8.5700	  708.00	  593.32	-1815.25	  481.96
      8.6700	  695.00	  594.41	-1815.25	  483.04
      8.7700	  699.00	  595.48	-1815.25	  484.12
      8.8700	  714.00	  596.54	-1815.25	  485.17
      8.9700	  714.00	  597.58	-1815.25	  486.21
      9.0700	  699.00	  598.60	-1815.25	  487.23
      9.1700	  705.00	  599.60	-1815.25	  488.24
      9.2700	  666.00	  600.59	-1815.25	  489.22
      9.3700	  692.00	  601.56	-1815.25	  490.20
      9.4700	  669.00	  602.52	-1815.25	  491.15
      9.5700	  691.00	  603.46	-1815.25	  492.09
      9.6700	  648.00	  604.39	-1815.25	  493.02
      9.7700	  657.00	  605.29	-1815.25	  493.93
      9.8700	  690.00	  606.19	-1815.25	  494.82
      9.9700	  685.00	  607.06	-1815.25	  495.70
     10.0700	  667.00	  610.23	-1758.48	  496.56
     10.1700	  692.00	  611.35	-1734.60	  497.41
     10.2700	  689.00	  612.51	-1738.76	  498.24
     10.3700	  684.00	  613.74	-1744.99	  499.05
     10.4700	  683.00	  615.08	-1747.33	  499.85
     10.5700	  676.00	  616.59	-1755.84	  500.64
     10.6700	  617.00	  618.36	-1816.61	  501.41
     10.7700	  662.00	  620.50	-1773.75	  502.17
     10.8700	  663.00	  623.11	-1775.36	  502.91
     10.9700	  662.00	  626.24	-1779.49	  503.64
     11.0700	  625.00	  629.91	-1820.16	  504.35
     11.1700	  684.00	  634.14	-1765.39	  505.05
     11.2700	  678.00	  638.96	-1776.21	  505.74
     11.3700	  682.00	  644.47	-1777.72	  506.41
     11.4700	  649.00	  650.82	-1817.07	  507.07
     11.5700	  659.00	  658.24	-1814.49	  507.71
     11.6700	  713.00	  667.07	-1769.32	  508.34
     11.7700	  711.00	  677.70	-1781.95	  508.96
     11.8700	  719.00	  690.35	-1786.60	  509.56
     11.9700	  744.00	  704.68	-1775.93	  510.15
     12.0700	  787.00	  719.08	-1747.33	  510.72
     12.1700	  757.00	  730.01	-1788.26	  511.29
     12.2700	  752.00	  731.90	-1795.15	  511.84
     12.3700	  755.00	  720.48	-1780.73	  512.37
     12.4700	  697.00	  699.56	-1817.81	  512.90
     12.5700	  634.00	  678.15	-1859.40	  513.41
     12.6700	  674.00	  661.43	-1802.68	  513.91
     12.7700	  626.00	  650.15	-1839.40	  514.40
     12.8700	  659.00	  643.20	-1799.45	  514.87
     12.9700	  571.00	  639.14	-1883.39	  515.33
     13.0700	  659.00	  636.81	-1793.06	  515.78
     13.1700	  623.00	  635.39	-1827.64	  516.22
     13.2700	  636.00	  634.49	-1813.74	  516.64
     13.3700	  610.00	  633.91	-1839.16	  517.05
     13.4700	  620.00	  633.53	-1828.78	  517.46
     13.5700	  631.00	  633.31	-1817.56	  517.85
     13.6700	  625.00	  633.18	-1823.43	  518.22
     13.7700	  619.00	  633.14	-1829.39	  518.59
     13.8700	  615.00	  633.16	-1833.41	  518.95
     13.9700	  601.00	  633.21	-1847.46	  519.29
     14.0700	  639.00	  633.30	-1809.55	  519.62
     14.1700	  645.00	  633.42	-1803.67	  519.94
     14.2700	  627.00	  633.55	-1821.80	  520.25
     14.3700	  597.00	  633.69	-1851.94	  520.55
     14.4700	  665.00	  633.84	-1784.09	  520.84
     14.5700	  589.00	  634.00	-1860.25	  521.12
     14.6700	  584.00	  634.16	-1865.41	  521.38
     14.7700	  637.00	  634.33	-1812.58	  521.64
     14.8700	  601.00	  634.49	-1848.74	  521.89
     14.9700	  628.00	  634.65	-1821.90	  522.12
     15.0700	  644.00	  634.81	-1806.06	  522.35
     15.1700	  633.00	  634.97	-1817.22	  522.56
     15.2700	  646.00	  635.12	-1804.37	  522.77
     15.3700	  616.00	  635.26	-1834.51	  522.96
     15.4700	  619.00	  635.40	-1831.65	  523.15
     15.5700	  630.00	  635.54	-1820.79	  523.32
     15.6700	  615.00	  635.66	-1835.92	  523.49
     15.7700	  612.00	  635.79	-1839.04	  523.64
     15.8700	  594.00	  635.90	-1857.15	  523.79
     15.9700	  627.00	  636.01	-1824.26	  523.93
     16.0700	  573.00	  636.11	-1878.36	  524.05
     16.1700	  652.00	  636.20	-1799.45	  524.17
     16.2700	  575.00	  636.29	-1876.54	  524.28
     16.3700	  598.00	  636.37	-1853.62	  524.38
     16.4700	  586.00	  636.44	-1865.69	  524.47
     16.5700	  619.00	  636.51	-1832.76	  524.55
     16.6700	  654.00	  636.56	-1797.81	  524.62
     16.7700	  595.00	  636.61	-1856.86	  524.69
     16.8700	  636.00	  636.65	-1815.90	  524.74
     16.9700	  650.00	  636.69	-1801.94	  524.79
     17.0700	  614.00	  636.71	-1837.96	  524.83
     17.1700	  633.00	  636.73	-1818.98	  524.86
     17.2700	  584.00	  636.74	-1867.99	  524.88
     17.3700	  614.00	  636.91	-1838.16	  524.89
     17.4700	  585.00	  636.91	-1867.16	  524.90
     17.5700	  593.00	  636.90	-1859.15	  524.89
     17.6700	  588.00	  636.88	-1864.13	  524.88
     17.7700	  617.00	  637.04	-1835.29	  524.86
     17.8700	  606.00	  637.02	-1846.27	  524.83
     17.9700	  579.00	  636.98	-1873.23	  524.80
     18.0700	  621.00	  636.94	-1831.19	  524.76
     18.1700	  640.00	  636.90	-1812.15	  524.71
     18.2700	  606.00	  636.84	-1846.09	  524.65
     18.3700	  642.00	  636.78	-1810.03	  524.58
     18.4700	  607.00	  636.71	-1844.96	  524.51
     18.5700	  627.00	  636.64	-1824.89	  524.43
     18.6700	  612.00	  636.56	-1839.81	  524.34
     18.7700	  615.00	  636.47	-1836.72	  524.25
     18.8700	  622.00	  636.38	-1829.63	  524.15
     18.9700	  636.00	  636.28	-1815.53	  524.04
     19.0700	  571.00	  636.17	-1880.42	  523.92
     19.1700	  570.00	  636.06	-1881.31	  523.80
     19.2700	  611.00	  636.00	-1840.25	  523.67
     19.3700	  594.00	  635.87	-1857.12	  523.53
     19.4700	  570.00	  635.74	-1880.99	  523.39
     19.5700	  617.00	  635.61	-1833.86	  523.24
     19.6700	  583.00	  635.47	-1867.72	  523.09
     19.7700	  627.00	  635.33	-1823.58	  522.93
     19.8700	  595.00	  635.18	-1855.43	  522.76
     19.9700	  571.00	  635.02	-1879.27	  522.58
     20.0700	  577.00	  634.86	-1873.11	  522.40
     20.1700	  582.00	  634.69	-1867.94	  522.22
     20.2700	  574.00	  634.52	-1875.77	  522.02
     20.3700	  632.00	  634.35	-1817.60	  521.83
     20.4700	  583.00	  634.17	-1866.42	  521.62
     20.5700	  614.00	  633.99	-1835.24	  521.41
     20.6700	  613.00	  633.80	-1836.05	  521.19
     20.7700	  550.00	  633.61	-1898.86	  520.97
     20.8700	  589.00	  633.41	-1859.66	  520.75
     20.9700	  607.00	  633.21	-1841.46	  520.51
     21.0700	  594.00	  633.01	-1854.26	  520.27
     21.1700	  604.00	  632.81	-1844.06	  520.03
     21.2700	  625.00	  632.60	-1822.85	  519.78
     21.3700	  603.00	  632.39	-1844.64	  519.53
     21.4700	  600.00	  632.17	-1847.42	  519.27
     21.5700	  615.00	  631.96	-1832.21	  519.00
     21.6700	  580.00	  631.75	-1867.00	  518.73
     21.7700	  612.00	  631.67	-1834.92	  518.46
     21.8700	  635.00	  631.45	-1811.70	  518.18
     21.9700	  623.00	  631.24	-1823.49	  517.89
     22.0700	  618.00	  631.02	-1828.27	  517.60
     22.1700	  629.00	  630.81	-1817.06	  517.31
     22.2700	  601.00	  630.60	-1844.85	  517.01
     22.3700	  626.00	  630.40	-1819.65	  516.71
     22.4700	  625.00	  630.20	-1820.45	  516.40
     22.5700	  565.00	  630.01	-1880.26	  516.09
     22.6700	  590.00	  629.82	-1855.07	  515.77
     22.7700	  631.00	  629.65	-1813.90	  515.45
     22.8700	  584.00	  629.49	-1860.74	  515.13
     22.9700	  630.00	  629.35	-1814.60	  514.80
     23.0700	  572.00	  629.23	-1872.48	  514.46
     23.1700	  556.00	  629.13	-1888.38	  514.13
     23.2700	  618.00	  629.08	-1826.33	  513.78
     23.3700	  604.00	  629.06	-1840.31	  513.44
     23.4700	  627.00	  629.11	-1817.36	  513.09
     23.5700	  598.00	  629.24	-1846.49	  512.73
     23.6700	  613.00	  629.48	-1831.73	  512.38
     23.7700	  671.00	  629.89	-1774.14	  512.02
     23.8700	  683.00	  630.49	-1762.74	  511.65
     23.9700	  658.00	  631.57	-1788.82	  511.28
     24.0700	  627.00	  633.31	-1821.56	  510.91
     24.1700	  625.00	  636.12	-1826.37	  510.54
     24.2700	  650.00	  640.53	-1805.78	  510.16
     24.3700	  642.00	  647.10	-1820.35	  509.78
     24.4700	  678.00	  656.24	-1793.49	  509.39
     24.5700	  672.00	  667.90	-1811.15	  509.00
     24.6700	  678.00	  681.13	-1818.39	  508.61
     24.7700	  726.00	  693.65	-1782.90	  508.21
     24.8700	  686.00	  701.37	-1830.62	  507.82
     24.9700	  722.00	  699.56	-1792.81	  507.42
     25.0700	  696.00	  687.56	-1806.81	  507.01
     25.1700	  719.00	  671.10	-1767.35	  506.60
     25.2700	  668.00	  656.05	-1803.30	  506.19
     25.3700	  629.00	  644.73	-1830.98	  505.78
     25.4700	  666.00	  637.09	-1786.34	  505.37
     25.5700	  613.00	  632.29	-1834.54	  504.95
     25.6700	  666.00	  629.33	-1778.58	  504.53
     25.7700	  653.00	  627.47	-1789.72	  504.10
     25.8700	  677.00	  626.24	-1764.49	  503.68
     25.9700	  670.00	  625.40	-1770.65	  503.25
     26.0700	  668.00	  624.81	-1772.06	  502.82
     26.1700	  727.00	  624.43	-1712.68	  502.38
     26.2700	  725.00	  624.22	-1714.47	  501.95
     26.3700	  681.00	  624.17	-1758.42	  501.51
     26.4700	  659.00	  624.28	-1780.53	  501.07
     26.5700	  634.00	  624.56	-1805.81	  500.63
     26.6700	  697.00	  625.03	-1743.28	  500.18
     26.7700	  660.00	  625.71	-1780.96	  499.74
     26.8700	  677.00	  626.66	-1764.91	  499.29
     26.9700	  698.00	  627.94	-1745.19	  498.84
     27.0700	  725.00	  629.63	-1719.88	  498.38
     27.1700	  702.00	  631.87	-1745.12	  497.93
     27.2700	  741.00	  634.90	-1709.15	  497.47
     27.3700	  715.00	  639.16	-1739.41	  497.02
     27.4700	  747.00	  645.43	-1713.68	  496.56
     27.5700	  770.00	  655.21	-1700.46	  496.09
     27.6700	  768.00	  671.00	-1718.25	  495.63
     27.7700	  836.00	  696.61	-1675.86	  495.17
     27.8700	  783.00	  736.65	-1768.90	  494.70
     27.9700	  813.00	  794.73	-1796.98	  494.23
     28.0700	 1005.00	  870.33	-1680.58	  493.76
     28.1700	 1056.00	  955.35	-1714.60	  493.29
     28.2700	 1148.00	 1031.23	-1698.48	  492.82
     28.3700	 1164.00	 1070.44	-1721.69	  492.35
     28.4700	 1188.00	 1056.06	-1683.31	  491.87
     28.5700	 1183.00	 1012.87	-1645.12	  491.39
     28.6700	 1014.00	  985.42	-1786.67	  490.92
     28.7700	  986.00	  995.04	-1824.29	  490.44
     28.8700	 1053.00	 1035.50	-1797.75	  489.96
     28.9700	 1108.00	 1080.21	-1787.46	  489.48
     29.0700	 1144.00	 1090.37	-1761.62	  489.00
     29.1700	 1132.00	 1038.58	-1721.83	  488.51
     29.2700	 1025.00	  941.86	-1732.11	  488.03
     29.3700	  901.00	  841.59	-1755.84	  487.55
     29.4700	  905.00	  761.96	-1672.21	  487.06
     29.5700	  774.00	  707.69	-1748.94	  486.57
     29.6700	  795.00	  674.24	-1694.49	  486.09
     29.7700	  808.00	  654.66	-1661.91	  485.60
     29.8700	  756.00	  643.14	-1702.39	  485.11
     29.9700	  690.00	  636.03	-1761.28	  484.62
     30.0700	  729.00	  631.52	-1717.77	  484.13
     30.1700	  728.00	  628.91	-1716.16	  483.64
     30.2700	  695.00	  628.19	-1748.44	  483.15
     30.3700	  728.00	  629.84	-1717.09	  482.66
     30.4700	  690.00	  634.85	-1760.10	  482.17
     30.5700	  704.00	  644.54	-1755.79	  481.68
     30.6700	  666.00	  660.04	-1809.29	  481.18
     30.7700	  706.00	  681.20	-1790.45	  480.69
     30.8700	  732.00	  705.42	-1788.67	  480.20
     30.9700	  759.00	  726.86	-1783.11	  479.70
     31.0700	  784.00	  736.57	-1767.82	  479.21
     31.1700	  711.00	  727.19	-1831.44	  478.71
     31.2700	  688.00	  702.01	-1829.26	  478.22
     31.3700	  735.00	  672.73	-1752.98	  477.73
     31.4700	  709.00	  647.77	-1754.02	  477.23
     31.5700	  651.00	  629.69	-1793.94	  476.74
     31.6700	  657.00	  617.91	-1776.16	  476.24
     31.7700	  604.00	  610.67	-1821.92	  475.75
     31.8700	  646.00	  606.25	-1775.50	  475.25
     31.9700	  627.00	  603.41	-1791.66	  474.76
     32.0700	  605.00	  601.46	-1811.71	  474.26
     32.1700	  595.00	  600.03	-1820.28	  473.77
     32.2700	  618.00	  598.98	-1796.23	  473.28
     32.3700	  619.00	  598.22	-1794.47	  472.78
     32.4700	  678.00	  597.73	-1734.98	  472.29
     32.5700	  605.00	  597.48	-1807.73	  471.80
     32.6700	  575.00	  597.54	-1837.79	  471.30
     32.7700	  602.00	  597.84	-1811.09	  470.81
     32.8700	  610.00	  598.49	-1803.74	  470.32
     32.9700	  561.00	  599.56	-1853.81	  469.83
     33.0700	  626.00	  601.21	-1790.46	  469.33
     33.1700	  638.00	  603.71	-1780.96	  468.84
     33.2700	  629.00	  607.57	-1793.82	  468.35
     33.3700	  636.00	  613.77	-1793.02	  467.86
     33.4700	  580.00	  624.03	-1859.28	  467.37
     33.5700	  602.00	  641.07	-1854.32	  466.89
     33.6700	  663.00	  668.48	-1820.73	  466.40
     33.7700	  748.00	  709.67	-1776.92	  465.91
     33.8700	  753.00	  765.55	-1827.80	  465.42
     33.9700	  836.00	  831.35	-1810.60	  464.94
     34.0700	  989.00	  894.09	-1720.34	  464.45
     34.1700	 1022.00	  932.62	-1725.87	  463.97
     34.2700	 1043.00	  925.94	-1698.19	  463.48
     34.3700	  994.00	  874.02	-1695.27	  463.00
     34.4700	  825.00	  801.98	-1792.23	  462.52
     34.5700	  763.00	  734.27	-1786.52	  462.04
     34.6700	  716.00	  681.68	-1780.93	  461.56
     34.7700	  669.00	  645.42	-1791.67	  461.08
     34.8700	  622.00	  622.37	-1815.62	  460.60
     34.9700	  606.00	  608.29	-1817.54	  460.12
     35.0700	  603.00	  599.52	-1811.77	  459.64
     35.1700	  551.00	  593.72	-1857.97	  459.17
     35.2700	  570.00	  589.54	-1834.79	  458.69
     35.3700	  577.00	  586.32	-1824.57	  458.22
     35.4700	  559.00	  584.21	-1840.46	  457.75
     35.5700	  574.00	  582.05	-1823.30	  457.28
     35.6700	  561.00	  580.21	-1834.46	  456.81
     35.7700	  534.00	  578.63	-1859.88	  456.34
     35.8700	  549.00	  577.24	-1843.49	  455.87
     35.9700	  572.00	  576.02	-1819.27	  455.40
     36.0700	  617.00	  574.92	-1773.17	  454.94
     36.1700	  532.00	  573.94	-1857.19	  454.47
     36.2700	  493.00	  573.06	-1895.31	  454.01
     36.3700	  573.00	  572.26	-1814.51	  453.55
     36.4700	  569.00	  571.53	-1817.78	  453.09
     36.5700	  581.00	  570.89	-1805.14	  452.63
     36.6700	  552.00	  570.33	-1833.58	  452.17
     36.7700	  558.00	  569.86	-1827.11	  451.72
     36.8700	  592.00	  569.51	-1792.76	  451.26
     36.9700	  577.00	  569.51	-1807.76	  450.81
     37.0700	  582.00	  569.56	-1802.81	  450.36
     37.1700	  542.00	  570.05	-1843.30	  449.91
     37.2700	  592.00	  571.18	-1794.43	  449.46
     37.3700	  560.00	  573.19	-1828.44	  449.01
     37.4700	  575.00	  576.31	-1816.56	  448.57
     37.5700	  564.00	  580.53	-1831.78	  448.12
     37.6700	  572.00	  585.47	-1828.72	  447.68
     37.7700	  592.00	  590.17	-1813.42	  447.24
     37.8700	  595.00	  593.13	-1813.38	  446.80
     37.9700	  553.00	  593.10	-1855.35	  446.36
     38.0700	  532.00	  590.16	-1873.41	  445.93
     38.1700	  553.00	  585.54	-1847.79	  445.49
     38.2700	  503.00	  580.25	-1892.50	  445.06
     38.3700	  578.00	  575.02	-1812.27	  444.63
     38.4700	  546.00	  570.31	-1839.56	  444.20
     38.5700	  551.00	  566.55	-1830.80	  443.77
     38.6700	  550.00	  563.74	-1828.99	  443.35
     38.7700	  537.00	  561.69	-1839.94	  442.92
     38.8700	  531.00	  560.21	-1844.46	  442.50
     38.9700	  605.00	  559.09	-1769.34	  442.08
     39.0700	  548.00	  558.21	-1825.46	  441.66
     39.1700	  577.00	  557.47	-1795.72	  441.25
     39.2700	  575.00	  556.81	-1797.06	  440.83
     39.3700	  556.00	  556.06	-1815.31	  440.42
     39.4700	  537.00	  555.52	-1833.77	  440.01
     39.5700	  514.00	  555.00	-1856.25	  439.60
     39.6700	  548.00	  554.52	-1821.77	  439.19
     39.7700	  500.00	  554.06	-1869.31	  438.79
     39.8700	  531.00	  554.17	-1838.42	  438.39
     39.9700	  524.00	  553.75	-1845.00	  437.98
     40.0700	  521.00	  553.36	-1847.61	  437.59
     40.1700	  554.00	  552.97	-1814.22	  437.19
     40.2700	  495.00	  552.61	-1872.86	  436.79
     40.3700	  576.00	  552.26	-1791.51	  436.40
     40.4700	  519.00	  551.92	-1848.17	  436.01
     40.5700	  507.00	  551.43	-1859.68	  435.62
     40.6700	  536.00	  551.14	-1830.39	  435.23
     40.7700	  520.00	  550.86	-1846.11	  434.85
     40.8700	  596.00	  550.61	-1769.86	  434.47
     40.9700	  542.00	  550.38	-1823.63	  434.08
     41.0700	  529.00	  550.18	-1836.43	  433.71
     41.1700	  532.00	  550.01	-1833.26	  433.33
     41.2700	  514.00	  549.89	-1851.14	  432.96
     41.3700	  530.00	  549.87	-1835.12	  432.58
     41.4700	  507.00	  549.86	-1858.11	  432.21
     41.5700	  518.00	  549.92	-1847.17	  431.85
     41.6700	  536.00	  550.09	-1829.34	  431.48
     41.7700	  486.00	  550.48	-1879.73	  431.12
     41.8700	  522.00	  551.06	-1844.31	  430.75
     41.9700	  555.00	  552.15	-1812.40	  430.40
     42.0700	  569.00	  553.87	-1800.12	  430.04
     42.1700	  540.00	  556.77	-1832.02	  429.68
     42.2700	  531.00	  561.47	-1845.72	  429.33
     42.3700	  561.00	  568.64	-1822.89	  428.98
     42.4700	  564.00	  578.72	-1829.97	  428.63
     42.5700	  560.00	  591.49	-1846.74	  428.29
     42.6700	  584.00	  605.80	-1837.05	  427.94
     42.7700	  599.00	  618.20	-1834.45	  427.60
     42.8700	  644.00	  624.65	-1795.90	  427.26
     42.9700	  618.00	  621.94	-1819.19	  426.93
     43.0700	  601.00	  610.98	-1825.23	  426.59
     43.1700	  651.00	  596.31	-1760.56	  426.26
     43.2700	  543.00	  581.97	-1854.22	  425.93
     43.3700	  577.00	  570.04	-1808.29	  425.61
     43.4700	  533.00	  561.13	-1843.38	  425.28
     43.5700	  565.00	  554.98	-1805.23	  424.96
     43.6700	  506.00	  550.94	-1860.19	  424.64
     43.7700	  573.00	  548.33	-1790.58	  424.32
     43.8700	  521.00	  546.83	-1841.08	  424.00
     43.9700	  548.00	  545.63	-1812.88	  423.69
     44.0700	  537.00	  544.73	-1822.98	  423.38
     44.1700	  509.00	  544.02	-1850.27	  423.07
     44.2700	  520.00	  543.44	-1838.69	  422.77
     44.3700	  572.00	  542.94	-1786.19	  422.46
     44.4700	  559.00	  542.52	-1798.77	  422.16
     44.5700	  531.00	  542.17	-1826.42	  421.86
     44.6700	  497.00	  541.86	-1860.11	  421.57
     44.7700	  549.00	  541.59	-1807.84	  421.27
     44.8700	  512.00	  541.37	-1844.62	  420.98
     44.9700	  560.00	  541.18	-1796.43	  420.69
     45.0700	  508.00	  541.02	-1848.27	  420.40
     45.1700	  520.00	  540.97	-1836.22	  420.12
     45.2700	  553.00	  540.90	-1803.15	  419.84
     45.3700	  548.00	  540.84	-1808.09	  419.56
     45.4700	  518.00	  540.81	-1838.06	  419.28
     45.5700	  570.00	  540.81	-1786.06	  419.01
     45.6700	  531.00	  540.90	-1825.15	  418.74
     45.7700	  560.00	  540.98	-1796.23	  418.47
     45.8700	  518.00	  541.09	-1838.34	  418.20
     45.9700	  523.00	  541.25	-1833.50	  417.93
     46.0700	  508.00	  541.46	-1848.71	  417.67
     46.1700	  538.00	  541.72	-1818.97	  417.41
     46.2700	  538.00	  542.05	-1819.30	  417.15
     46.3700	  542.00	  542.44	-1815.69	  416.90
     46.4700	  543.00	  542.92	-1815.17	  416.65
     46.5700	  489.00	  543.50	-1869.75	  416.40
     46.6700	  541.00	  544.20	-1818.45	  416.15
     46.7700	  549.00	  545.05	-1811.30	  415.90
     46.8700	  562.00	  545.96	-1799.21	  415.66
     46.9700	  525.00	  547.31	-1837.56	  415.42
     47.0700	  602.00	  549.11	-1762.36	  415.18
     47.1700	  599.00	  551.65	-1767.90	  414.95
     47.2700	  525.00	  555.37	-1845.62	  414.71
     47.3700	  580.00	  560.92	-1796.17	  414.48
     47.4700	  566.00	  569.10	-1818.35	  414.26
     47.5700	  577.00	  580.69	-1818.94	  414.03
     47.6700	  562.00	  596.12	-1849.37	  413.81
     47.7700	  583.00	  615.48	-1847.73	  413.59
     47.8700	  656.00	  636.20	-1795.45	  413.37
     47.9700	  629.00	  655.16	-1841.41	  413.15
     48.0700	  639.00	  667.25	-1843.50	  412.94
     48.1700	  662.00	  668.17	-1821.42	  412.73
     48.2700	  638.00	  658.13	-1835.38	  412.52
     48.3700	  632.00	  641.85	-1825.10	  412.32
     48.4700	  582.00	  624.69	-1857.94	  412.11
     48.5700	  574.00	  610.05	-1851.30	  411.91
     48.6700	  584.00	  599.48	-1830.73	  411.71
     48.7700	  542.00	  593.29	-1866.54	  411.52
     48.8700	  597.00	  591.11	-1809.36	  411.33
     48.9700	  555.00	  592.37	-1852.62	  411.13
     49.0700	  571.00	  596.60	-1840.85	  410.95
     49.1700	  578.00	  603.74	-1840.99	  410.76
     49.2700	  635.00	  614.41	-1794.66	  410.58
     49.3700	  579.00	  630.32	-1866.57	  410.40
     49.4700	  584.00	  655.05	-1886.30	  410.22
     49.5700	  621.00	  694.97	-1889.22	  410.04
     49.6700	  685.00	  760.02	-1890.27	  409.87
     49.7700	  801.00	  863.32	-1877.57	  409.70
     49.8700	  934.00	 1018.59	-1899.84	  409.53
     49.9700	 1213.00	 1234.75	-1837.00	  409.36
     50.0700	 1431.00	 1508.13	-1892.38	  409.20
     50.1700	 1770.00	 1813.99	-1859.24	  409.03
     50.2700	 2169.00	 2099.07	-1745.32	  408.87
     50.3700	 2292.00	 2283.12	-1806.37	  408.72
     50.4700	 2384.00	 2294.36	-1725.61	  408.56
     50.5700	 2218.00	 2126.45	-1723.70	  408.41
     50.6700	 1806.00	 1847.87	-1857.12	  408.26
     50.7700	 1489.00	 1543.24	-1869.49	  408.11
     50.8700	 1159.00	 1270.01	-1926.26	  407.97
     50.9700	  966.00	 1054.98	-1904.23	  407.83
     51.0700	  801.00	  902.71	-1916.96	  407.69
     51.1700	  772.00	  803.99	-1847.24	  407.55
     51.2700	  724.00	  743.68	-1834.93	  407.41
     51.3700	  698.00	  706.42	-1823.67	  407.28
     51.4700	  629.00	  680.56	-1866.81	  407.15
     51.5700	  648.00	  659.69	-1826.94	  407.02
     51.6700	  656.00	  641.65	-1800.90	  406.89
     51.7700	  607.00	  626.26	-1834.51	  406.77
     51.8700	  603.00	  613.63	-1825.88	  406.65
     51.9700	  613.00	  603.80	-1806.05	  406.53
     52.0700	  600.00	  596.60	-1811.85	  406.41
     52.1700	  641.00	  591.76	-1766.01	  406.30
     52.2700	  669.00	  588.95	-1735.20	  406.19
     52.3700	  582.00	  587.94	-1821.19	  406.08
     52.4700	  562.00	  588.64	-1841.89	  405.97
     52.5700	  579.00	  591.26	-1827.51	  405.86
     52.6700	  609.00	  596.41	-1802.66	  405.76
     52.7700	  649.00	  605.26	-1771.51	  405.66
     52.8700	  649.00	  619.77	-1786.02	  405.56
     52.9700	  671.00	  642.67	-1786.92	  405.46
     53.0700	  651.00	  677.37	-1841.62	  405.37
     53.1700	  752.00	  727.08	-1790.33	  405.28
     53.2700	  779.00	  794.00	-1830.25	  405.19
     53.3700	  889.00	  877.55	-1803.80	  405.10
     53.4700	 1031.00	  972.69	-1756.94	  405.02
     53.5700	 1161.00	 1067.93	-1722.18	  404.93
     53.6700	 1237.00	 1144.13	-1722.38	  404.85
     53.7700	 1216.00	 1178.78	-1778.03	  404.77
     53.8700	 1234.00	 1158.77	-1740.02	  404.70
     53.9700	 1132.00	 1091.67	-1774.92	  404.62
     54.0700	 1027.00	  999.36	-1787.61	  404.55
     54.1700	  949.00	  903.07	-1769.32	  404.48
     54.2700	  761.00	  816.32	-1870.57	  404.41
     54.3700	  723.00	  745.59	-1837.84	  404.35
     54.4700	  692.00	  692.32	-1815.57	  404.28
     54.5700	  684.00	  654.91	-1786.16	  404.22
     54.6700	  638.00	  630.18	-1807.43	  404.16
     54.7700	  642.00	  614.69	-1787.94	  404.10
     54.8700	  664.00	  605.50	-1756.75	  404.05
     54.9700	  637.00	  600.42	-1778.67	  404.00
     55.0700	  661.00	  598.05	-1752.30	  403.94
     55.1700	  624.00	  597.60	-1788.85	  403.90
     55.2700	  645.00	  598.65	-1768.90	  403.85
     55.3700	  675.00	  601.04	-1741.29	  403.80
     55.4700	  562.00	  604.78	-1858.03	  403.76
     55.5700	  643.00	  609.99	-1782.24	  403.72
     55.6700	  586.00	  616.98	-1846.23	  403.68
     55.7700	  658.00	  626.34	-1783.59	  403.64
     55.8700	  654.00	  639.14	-1800.39	  403.61
     55.9700	  662.00	  657.34	-1810.59	  403.58
     56.0700	  654.00	  684.29	-1845.54	  403.54
     56.1700	  673.00	  725.44	-1867.69	  403.52
     56.2700	  757.00	  788.53	-1846.78	  403.49
     56.3700	  861.00	  883.64	-1837.89	  403.46
     56.4700	  921.00	 1021.53	-1915.78	  403.44
     56.5700	 1154.00	 1210.81	-1872.06	  403.42
     56.6700	 1384.00	 1453.92	-1885.17	  403.40
     56.7700	 1714.00	 1742.06	-1843.31	  403.38
     56.8700	 2081.00	 2050.32	-1784.57	  403.37
     56.9700	 2265.00	 2333.05	-1883.30	  403.35
     57.0700	 2476.00	 2525.85	-1865.10	  403.34
     57.1700	 2472.00	 2568.49	-1911.74	  403.33
     57.2700	 2463.00	 2445.23	-1797.48	  403.32
     57.3700	 2164.00	 2199.10	-1850.35	  403.31
     57.4700	 1865.00	 1897.93	-1848.18	  403.31
     57.5700	 1489.00	 1598.32	-1924.57	  403.31
     57.6700	 1286.00	 1334.81	-1864.06	  403.31
     57.7700	 1044.00	 1123.44	-1894.69	  403.31
     57.8700	  887.00	  966.83	-1895.08	  403.31
     57.9700	  783.00	  859.33	-1891.58	  403.31
     58.0700	  824.00	  791.70	-1782.95	  403.32
     58.1700	  781.00	  754.55	-1788.80	  403.33
     58.2700	  763.00	  740.69	-1792.94	  403.33
     58.3700	  750.00	  745.58	-1810.83	  403.35
     58.4700	  782.00	  766.86	-1800.11	  403.36
     58.5700	  780.00	  803.32	-1838.57	  403.37
     58.6700	  858.00	  853.56	-1810.81	  403.39
     58.7700	  964.00	  914.73	-1765.98	  403.41
     58.8700	  971.00	  981.48	-1825.73	  403.42
     58.9700	 1074.00	 1046.65	-1787.90	  403.44
     59.0700	 1157.00	 1104.05	-1762.30	  403.47
     59.1700	 1222.00	 1150.46	-1743.71	  403.49
     59.2700	 1262.00	 1183.25	-1736.50	  403.52
     59.3700	 1286.00	 1198.91	-1728.16	  403.54
     59.4700	 1228.00	 1197.47	-1784.72	  403.57
     59.5700	 1308.00	 1186.12	-1693.37	  403.60
     59.6700	 1238.00	 1175.56	-1752.81	  403.63
     59.7700	 1222.00	 1173.93	-1767.18	  403.67
     59.8700	 1203.00	 1185.62	-1797.87	  403.70
     59.9700	 1227.00	 1214.10	-1802.35	  403.74
     60.0700	 1308.00	 1262.80	-1770.05	  403.77
     60.1700	 1344.00	 1331.81	-1803.06	  403.81
     60.2700	 1523.00	 1413.37	-1705.62	  403.85
     60.3700	 1493.00	 1489.97	-1812.22	  403.90
     60.4700	 1668.00	 1536.18	-1683.43	  403.94
     60.5700	 1589.00	 1528.33	-1754.58	  403.98
     60.6700	 1504.00	 1459.72	-1770.97	  404.03
     60.7700	 1335.00	 1345.48	-1825.73	  404.08
     60.8700	 1239.00	 1210.66	-1786.91	  404.13
     60.9700	 1046.00	 1077.18	-1846.43	  404.18
     61.0700	  924.00	  959.46	-1850.71	  404.23
     61.1700	  850.00	  865.07	-1830.32	  404.28
     61.2700	  826.00	  796.67	-1785.92	  404.33
     61.3700	  739.00	  753.84	-1830.09	  404.39
     61.4700	  762.00	  734.96	-1788.21	  404.44
     61.5700	  710.00	  738.74	-1843.99	  404.50
     61.6700	  731.00	  764.97	-1849.22	  404.56
     61.7700	  833.00	  814.31	-1796.56	  404.62
     61.8700	  846.00	  887.24	-1856.49	  404.68
     61.9700	 1026.00	  982.56	-1771.81	  404.75
     62.0700	 1035.00	 1095.59	-1875.84	  404.81
     62.1700	 1136.00	 1216.62	-1895.87	  404.87
     62.2700	 1343.00	 1329.57	-1801.82	  404.94
     62.3700	 1360.00	 1412.29	-1867.54	  405.01
     62.4700	 1311.00	 1442.62	-1946.87	  405.08
     62.5700	 1345.00	 1410.39	-1880.64	  405.14
     62.6700	 1230.00	 1325.06	-1910.31	  405.21
     62.7700	 1232.00	 1208.68	-1791.93	  405.29
     62.8700	 1039.00	 1083.47	-1859.72	  405.36
     62.9700	  900.00	  965.38	-1880.63	  405.43
     63.0700	  734.00	  863.86	-1945.11	  405.51
     63.1700	  740.00	  782.85	-1858.10	  405.58
     63.2700	  690.00	  722.36	-1847.61	  405.66
     63.3700	  687.00	  679.91	-1808.16	  405.74
     63.4700	  649.00	  651.88	-1818.13	  405.82
     63.5700	  666.00	  634.74	-1783.99	  405.89
     63.6700	  664.00	  625.65	-1776.90	  405.97
     63.7700	  667.00	  622.95	-1771.20	  406.06
     63.8700	  620.00	  625.96	-1821.21	  406.14
     63.9700	  665.00	  635.05	-1785.30	  406.22
     64.0700	  680.00	  651.10	-1786.35	  406.31
     64.1700	  712.00	  675.48	-1778.73	  406.39
     64.2700	  701.00	  709.38	-1823.63	  406.48
     64.3700	  831.00	  753.36	-1737.61	  406.56
     64.4700	  865.00	  806.90	-1757.15	  406.65
     64.5700	  842.00	  867.12	-1840.37	  406.74
     64.6700	  958.00	  929.20	-1786.45	  406.83
     64.7700	 1032.00	  985.47	-1768.72	  406.91
     64.8700	 1165.00	 1026.74	-1676.99	  407.01
     64.9700	 1127.00	 1045.37	-1733.62	  407.10
     65.0700	 1088.00	 1038.56	-1765.81	  407.19
     65.1700	 1001.00	 1009.11	-1823.36	  407.28
     65.2700	  977.00	  963.89	-1802.14	  407.37
     65.3700	  909.00	  910.78	-1817.03	  407.47
     65.4700	  865.00	  858.20	-1808.45	  407.56
     65.5700	  809.00	  809.82	-1816.07	  407.66
     65.6700	  766.00	  767.69	-1816.94	  407.75
     65.7700	  723.00	  731.92	-1824.17	  407.85
     65.8700	  698.00	  702.04	-1819.29	  407.94
     65.9700	  675.00	  677.72	-1817.97	  408.04
     66.0700	  642.00	  658.33	-1831.58	  408.14
     66.1700	  627.00	  643.46	-1831.71	  408.24
     66.2700	  623.00	  632.52	-1824.77	  408.34
     66.3700	  605.00	  625.05	-1835.30	  408.44
     66.4700	  614.00	  620.43	-1821.68	  408.54
     66.5700	  607.00	  618.49	-1826.74	  408.64
     66.6700	  607.00	  618.93	-1827.18	  408.74
     66.7700	  581.00	  621.81	-1856.06	  408.84
     66.8700	  624.00	  627.39	-1818.64	  408.94
     66.9700	  677.00	  636.32	-1774.57	  409.04
     67.0700	  625.00	  649.89	-1840.14	  409.14
     67.1700	  628.00	  670.20	-1857.45	  409.25
     67.2700	  732.00	  700.45	-1783.70	  409.35
     67.3700	  693.00	  745.05	-1867.30	  409.45
     67.4700	  818.00	  809.47	-1806.72	  409.56
     67.5700	  835.00	  899.72	-1879.97	  409.66
     67.6700	  974.00	 1021.30	-1862.55	  409.76
     67.7700	 1169.00	 1177.73	-1823.98	  409.87
     67.8700	 1293.00	 1368.80	-1891.05	  409.97
     67.9700	 1602.00	 1588.54	-1801.79	  410.08
     68.0700	 1811.00	 1823.77	-1828.02	  410.18
     68.1700	 2002.00	 2052.40	-1865.65	  410.29
     68.2700	 2257.00	 2243.28	-1801.53	  410.39
     68.3700	 2329.00	 2360.38	-1846.63	  410.50
     68.4700	 2346.00	 2375.74	-1844.99	  410.61
     68.5700	 2284.00	 2285.31	-1816.56	  410.71
     68.6700	 2124.00	 2111.68	-1802.93	  410.82
     68.7700	 1846.00	 1890.36	-1859.61	  410.92
     68.8700	 1712.00	 1654.67	-1757.92	  411.03
     68.9700	 1419.00	 1429.34	-1825.59	  411.14
     69.0700	 1216.00	 1229.85	-1829.10	  411.24
     69.1700	 1048.00	 1063.97	-1831.22	  411.35
     69.2700	  925.00	  933.34	-1823.59	  411.46
     69.3700	  829.00	  835.29	-1821.54	  411.56
     69.4700	  827.00	  764.68	-1752.93	  411.67
     69.5700	  705.00	  715.51	-1825.76	  411.78
     69.6700	  680.00	  682.05	-1817.30	  411.88
     69.7700	  688.00	  659.53	-1786.78	  411.99
     69.8700	  697.00	  644.33	-1762.58	  412.10
     69.9700	  648.00	  633.98	-1801.23	  412.20
     70.0700	  614.00	  626.85	-1828.10	  412.31
     70.1700	  609.00	  621.97	-1828.22	  412.41
     70.2700	  641.00	  618.77	-1793.02	  412.52
     70.3700	  602.00	  616.96	-1830.21	  412.62
     70.4700	  594.00	  617.38	-1838.63	  412.73
     70.5700	  601.00	  618.12	-1832.37	  412.84
     70.6700	  628.00	  620.31	-1807.56	  412.94
     70.7700	  599.00	  624.14	-1840.39	  413.05
     70.8700	  660.00	  630.64	-1785.89	  413.15
     70.9700	  661.00	  640.69	-1794.94	  413.25
     71.0700	  661.00	  655.89	-1810.14	  413.36
     71.1700	  714.00	  678.50	-1779.75	  413.46
     71.2700	  750.00	  711.50	-1776.75	  413.57
     71.3700	  740.00	  758.45	-1833.70	  413.67
     71.4700	  793.00	  823.16	-1845.41	  413.77
     71.5700	  917.00	  909.08	-1807.33	  413.88
     71.6700	  964.00	 1018.46	-1869.71	  413.98
     71.7700	 1120.00	 1151.34	-1846.59	  414.08
     71.8700	 1265.00	 1304.61	-1854.86	  414.18
     71.9700	 1354.00	 1470.97	-1932.22	  414.28
     72.0700	 1643.00	 1638.20	-1810.45	  414.38
     72.1700	 1664.00	 1788.62	-1939.87	  414.48
     72.2700	 1811.00	 1900.29	-1904.54	  414.58
     72.3700	 1863.00	 1951.99	-1904.24	  414.68
     72.4700	 1867.00	 1932.11	-1880.36	  414.78
     72.5700	 1810.00	 1845.29	-1850.54	  414.88
     72.6700	 1737.00	 1709.67	-1787.92	  414.98
     72.7700	 1512.00	 1547.76	-1851.01	  415.07
     72.8700	 1429.00	 1379.38	-1765.63	  415.17
     72.9700	 1188.00	 1219.08	-1846.33	  415.27
     73.0700	 1036.00	 1076.14	-1855.39	  415.36
     73.1700	 1003.00	  955.32	-1767.57	  415.46
     73.2700	  878.00	  857.78	-1795.03	  415.55
     73.3700	  790.00	  782.15	-1807.40	  415.64
     73.4700	  782.00	  725.51	-1758.76	  415.74
     73.5700	  704.00	  684.25	-1795.50	  415.83
     73.6700	  713.00	  654.74	-1756.99	  415.92
     73.7700	  659.00	  633.81	-1790.06	  416.01
     73.8700	  633.00	  618.90	-1801.15	  416.10
     73.9700	  656.00	  608.16	-1767.41	  416.19
     74.0700	  641.00	  600.30	-1774.55	  416.28
     74.1700	  641.00	  594.44	-1768.69	  416.37
     74.2700	  619.00	  590.03	-1786.28	  416.46
     74.3700	  619.00	  586.71	-1782.96	  416.54
     74.4700	  605.00	  584.22	-1794.47	  416.63
     74.5700	  704.00	  581.82	-1693.07	  416.71
     74.6700	  669.00	  580.43	-1726.68	  416.80
     74.7700	  676.00	  579.32	-1718.57	  416.88
     74.8700	  673.00	  578.33	-1720.57	  416.96
     74.9700	  660.00	  577.28	-1732.53	  417.04
     75.0700	  635.00	  576.09	-1756.34	  417.12
     75.1700	  682.00	  574.79	-1708.04	  417.20
     75.2700	  666.00	  573.50	-1722.75	  417.28
     75.3700	  650.00	  572.41	-1737.66	  417.36
     75.4700	  668.00	  571.79	-1719.04	  417.44
     75.5700	  663.00	  571.89	-1724.14	  417.51
     75.6700	  587.00	  573.04	-1801.29	  417.59
     75.7700	  683.00	  575.57	-1707.82	  417.66
     75.8700	  618.00	  579.86	-1777.11	  417.74
     75.9700	  602.00	  586.28	-1799.53	  417.81
     76.0700	  589.00	  595.16	-1821.41	  417.88
     76.1700	  603.00	  606.64	-1818.89	  417.95
     76.2700	  678.00	  620.82	-1758.07	  418.02
     76.3700	  710.00	  637.36	-1742.61	  418.09
     76.4700	  632.00	  655.61	-1838.86	  418.15
     76.5700	  704.00	  674.50	-1785.75	  418.22
     76.6700	  744.00	  692.48	-1763.73	  418.28
     76.7700	  737.00	  707.53	-1785.78	  418.35
     76.8700	  730.00	  717.35	-1802.60	  418.41
     76.9700	  744.00	  720.29	-1791.54	  418.47
     77.0700	  618.00	  715.61	-1912.86	  418.53
     77.1700	  704.00	  704.18	-1815.43	  418.59
     77.2700	  723.00	  687.91	-1780.16	  418.65
     77.3700	  704.00	  669.03	-1780.28	  418.70
     77.4700	  602.00	  649.46	-1862.71	  418.76
     77.5700	  642.00	  630.68	-1803.93	  418.81
     77.6700	  627.00	  613.66	-1801.91	  418.87
     77.7700	  591.00	  598.96	-1823.21	  418.92
     77.8700	  563.00	  586.81	-1839.06	  418.97
     77.9700	  564.00	  577.14	-1828.39	  419.02
     78.0700	  586.00	  569.71	-1798.96	  419.07
     78.1700	  556.00	  564.16	-1823.41	  419.11
     78.2700	  538.00	  560.11	-1837.36	  419.16
     78.3700	  577.00	  557.20	-1795.45	  419.20
     78.4700	  566.00	  555.13	-1804.38	  419.25
     78.5700	  566.00	  553.38	-1802.63	  419.29
     78.6700	  579.00	  552.33	-1788.58	  419.33
     78.7700	  544.00	  551.58	-1822.83	  419.37
     78.8700	  587.00	  551.04	-1779.29	  419.40
     78.9700	  563.00	  550.67	-1802.92	  419.44
     79.0700	  557.00	  550.44	-1808.69	  419.47
     79.1700	  549.00	  550.33	-1816.58	  419.51
     79.2700	  561.00	  550.35	-1804.60	  419.54
     79.3700	  562.00	  550.51	-1803.76	  419.57
     79.4700	  564.00	  550.80	-1802.05	  419.60
     79.5700	  553.00	  551.26	-1813.51	  419.62
     79.6700	  547.00	  551.89	-1820.14	  419.65
     79.7700	  574.00	  552.72	-1793.97	  419.67
     79.8700	  596.00	  553.76	-1773.01	  419.70
     79.9700	  559.00	  555.05	-1811.30	  419.72
     80.0700	  602.00	  556.60	-1769.85	  419.74
     80.1700	  564.00	  558.47	-1809.72	  419.76
     80.2700	  577.00	  560.69	-1798.94	  419.77
     80.3700	  589.00	  563.32	-1789.57	  419.79
     80.4700	  600.00	  566.45	-1781.70	  419.80
     80.5700	  615.00	  570.21	-1770.46	  419.81
     80.6700	  576.00	  574.77	-1814.02	  419.82
     80.7700	  651.00	  580.33	-1744.58	  419.83
     80.8700	  667.00	  587.12	-1735.37	  419.84
     80.9700	  687.00	  595.29	-1723.54	  419.85
     81.0700	  685.00	  604.94	-1735.19	  419.85
     81.1700	  739.00	  615.82	-1692.07	  419.85
     81.2700	  689.00	  628.22	-1754.47	  419.85
     81.3700	  715.00	  641.67	-1741.92	  419.85
     81.4700	  749.00	  655.87	-1722.12	  419.85
     81.5700	  829.00	  670.46	-1656.71	  419.85
     81.6700	  779.00	  684.97	-1721.22	  419.84
     81.7700	  756.00	  698.77	-1758.02	  419.83
     81.8700	  780.00	  711.01	-1746.26	  419.83
     81.9700	  776.00	  720.67	-1759.92	  419.81
     82.0700	  773.00	  726.66	-1768.91	  419.80
     82.1700	  751.00	  728.21	-1792.46	  419.79
     82.2700	  767.00	  725.17	-1773.42	  419.77
     82.3700	  732.00	  718.08	-1801.33	  419.75
     82.4700	  694.00	  707.85	-1829.10	  419.74
     82.5700	  709.00	  695.44	-1801.69	  419.71
     82.6700	  669.00	  681.63	-1827.88	  419.69
     82.7700	  628.00	  667.05	-1854.30	  419.67
     82.8700	  641.00	  652.34	-1826.59	  419.64
     82.9700	  583.00	  638.15	-1870.40	  419.61
     83.0700	  575.00	  625.13	-1865.38	  419.58
     83.1700	  531.00	  613.83	-1898.08	  419.55
     83.2700	  514.00	  604.64	-1905.89	  419.52
     83.3700	  596.00	  597.76	-1817.01	  419.48
     83.4700	  588.00	  593.27	-1820.52	  419.45
     83.5700	  538.00	  591.12	-1868.37	  419.41
     83.6700	  597.00	  591.15	-1809.40	  419.37
     83.7700	  535.00	  593.07	-1873.32	  419.32
     83.8700	  538.00	  596.51	-1873.76	  419.28
     83.9700	  550.00	  600.99	-1866.24	  419.23
     84.0700	  582.00	  605.92	-1839.17	  419.18
     84.1700	  629.00	  610.63	-1796.88	  419.13
     84.2700	  606.00	  614.39	-1823.64	  419.08
     84.3700	  594.00	  616.52	-1837.77	  419.03
     84.4700	  589.00	  616.51	-1842.76	  418.97
     84.5700	  596.00	  614.24	-1833.49	  418.92
     84.6700	  594.00	  609.95	-1831.20	  418.86
     84.7700	  571.00	  604.05	-1848.30	  418.80
     84.8700	  574.00	  597.39	-1838.64	  418.73
     84.9700	  598.00	  590.41	-1807.66	  418.67
     85.0700	  546.00	  583.59	-1852.84	  418.60
     85.1700	  548.00	  577.29	-1844.54	  418.53
     85.2700	  518.00	  571.75	-1869.00	  418.46
     85.3700	  573.00	  567.12	-1809.37	  418.39
     85.4700	  521.00	  563.46	-1857.71	  418.31
     85.5700	  521.00	  560.79	-1855.04	  418.24
     85.6700	  560.00	  559.05	-1814.30	  418.16
     85.7700	  569.00	  558.19	-1804.44	  418.08
     85.8700	  572.00	  558.14	-1801.39	  418.00
     85.9700	  566.00	  558.83	-1808.08	  417.91
     86.0700	  527.00	  560.22	-1848.47	  417.83
     86.1700	  526.00	  562.28	-1851.53	  417.74
     86.2700	  526.00	  564.98	-1854.23	  417.65
     86.3700	  578.00	  568.34	-1805.59	  417.56
     86.4700	  504.00	  572.38	-1883.63	  417.46
     86.5700	  585.00	  577.12	-1807.37	  417.37
     86.6700	  553.00	  582.56	-1844.81	  417.27
     86.7700	  566.00	  588.73	-1837.98	  417.17
     86.8700	  576.00	  595.66	-1834.91	  417.07
     86.9700	  583.00	  603.39	-1835.64	  416.96
     87.0700	  600.00	  611.98	-1827.23	  416.86
     87.1700	  610.00	  621.43	-1826.68	  416.75
     87.2700	  592.00	  631.65	-1854.90	  416.64
     87.3700	  643.00	  642.40	-1814.65	  416.53
     87.4700	  617.00	  653.25	-1851.50	  416.41
     87.5700	  654.00	  663.57	-1824.82	  416.30
     87.6700	  612.00	  672.56	-1875.81	  416.18
     87.7700	  654.00	  679.32	-1840.57	  416.06
     87.8700	  694.00	  683.03	-1804.28	  415.94
     87.9700	  671.00	  683.13	-1827.38	  415.82
     88.0700	  675.00	  679.61	-1819.86	  415.69
     88.1700	  656.00	  672.97	-1832.22	  415.56
     88.2700	  658.00	  664.09	-1821.34	  415.43
     88.3700	  632.00	  653.97	-1837.22	  415.30
     88.4700	  642.00	  643.60	-1816.85	  415.17
     88.5700	  625.00	  633.83	-1824.08	  415.03
     88.6700	  629.00	  625.37	-1811.62	  414.89
     88.7700	  647.00	  618.75	-1787.00	  414.75
     88.8700	  624.00	  614.29	-1805.54	  414.61
     88.9700	  556.00	  612.17	-1871.42	  414.47
     89.0700	  631.00	  612.36	-1796.61	  414.32
     89.1700	  550.00	  614.67	-1879.92	  414.18
     89.2700	  624.00	  618.30	-1809.55	  414.03
     89.3700	  604.00	  623.65	-1834.90	  413.88
     89.4700	  591.00	  629.63	-1853.88	  413.72
     89.5700	  545.00	  635.52	-1905.77	  413.57
     89.6700	  592.00	  640.53	-1863.78	  413.41
     89.7700	  632.00	  643.86	-1827.11	  413.25
     89.8700	  606.00	  644.91	-1854.16	  413.09
     89.9700	  581.00	  643.35	-1877.60	  412.93
     90.0700	  636.00	  639.25	-1818.50	  412.76
     90.1700	  630.00	  633.02	-1818.27	  412.59
     90.2700	  589.00	  625.26	-1851.51	  412.42
     90.3700	  566.00	  616.59	-1865.84	  412.25
     90.4700	  594.00	  607.62	-1828.87	  412.08
     90.5700	  575.00	  598.82	-1839.07	  411.91
     90.6700	  545.00	  590.56	-1860.81	  411.73
     90.7700	  523.00	  583.11	-1875.36	  411.55
     90.8700	  567.00	  576.62	-1824.87	  411.37
     90.9700	  561.00	  571.18	-1825.43	  411.19
     91.0700	  537.00	  566.77	-1845.02	  411.00
     91.1700	  580.00	  563.35	-1798.60	  410.81
     91.2700	  575.00	  560.84	-1801.09	  410.63
     91.3700	  510.00	  559.15	-1864.40	  410.44
     91.4700	  532.00	  558.19	-1841.44	  410.24
     91.5700	  528.00	  557.88	-1845.13	  410.05
     91.6700	  502.00	  558.20	-1871.45	  409.85
     91.7700	  523.00	  559.14	-1851.39	  409.65
     91.8700	  584.00	  560.73	-1791.98	  409.45
     91.9700	  522.00	  563.04	-1856.29	  409.25
     92.0700	  555.00	  566.20	-1826.45	  409.05
     92.1700	  542.00	  570.32	-1843.57	  408.84
     92.2700	  545.00	  575.57	-1845.82	  408.64
     92.3700	  538.00	  582.11	-1859.36	  408.43
     92.4700	  573.00	  590.08	-1832.33	  408.22
     92.5700	  601.00	  599.61	-1813.86	  408.00
     92.6700	  590.00	  610.77	-1836.02	  407.79
     92.7700	  589.00	  623.57	-1849.82	  407.57
     92.8700	  653.00	  637.94	-1800.19	  407.35
     92.9700	  619.00	  653.74	-1849.99	  407.13
     93.0700	  620.00	  670.68	-1865.93	  406.91
     93.1700	  668.00	  688.39	-1835.64	  406.69
     93.2700	  698.00	  706.36	-1823.61	  406.46
     93.3700	  733.00	  724.01	-1806.26	  406.23
     93.4700	  696.00	  740.75	-1860.00	  406.01
     93.5700	  696.00	  756.11	-1875.36	  405.77
     93.6700	  750.00	  769.90	-1835.15	  405.54
     93.7700	  779.00	  782.23	-1818.48	  405.31
     93.8700	  824.00	  793.50	-1784.75	  405.07
     93.9700	  817.00	  804.18	-1802.43	  404.83
     94.0700	  866.00	  814.70	-1763.95	  404.59
     94.1700	  859.00	  825.33	-1781.58	  404.35
     94.2700	  872.00	  836.14	-1779.39	  404.11
     94.3700	  831.00	  847.18	-1831.43	  403.87
     94.4700	  874.00	  858.47	-1799.72	  403.62
     94.5700	  896.00	  870.09	-1789.34	  403.37
     94.6700	  925.00	  881.80	-1772.05	  403.12
     94.7700	  925.00	  894.18	-1784.43	  402.87
     94.8700	  868.00	  906.57	-1853.82	  402.62
     94.9700	  935.00	  918.26	-1798.51	  402.36
     95.0700	  904.00	  928.20	-1839.45	  402.11
     95.1700	  977.00	  935.10	-1773.35	  401.85
     95.2700	  940.00	  937.60	-1812.85	  401.59
     95.3700	  939.00	  934.59	-1810.84	  401.33
     95.4700	  972.00	  925.58	-1768.83	  401.07
     95.5700	  921.00	  910.84	-1805.09	  400.80
     95.6700	  918.00	  891.38	-1788.63	  400.54
     95.7700	  885.00	  868.71	-1798.96	  400.27
     95.8700	  829.00	  844.56	-1830.81	  400.00
     95.9700	  821.00	  820.68	-1814.93	  399.73
     96.0700	  800.00	  798.75	-1814.00	  399.46
     96.1700	  803.00	  780.28	-1792.53	  399.19
     96.2700	  781.00	  766.65	-1800.90	  398.92
     96.3700	  743.00	  759.10	-1831.35	  398.64
     96.4700	  775.00	  758.68	-1798.93	  398.36
     96.5700	  727.00	  766.27	-1854.52	  398.08
     96.6700	  766.00	  782.58	-1831.83	  397.81
     96.7700	  800.00	  808.09	-1823.34	  397.52
     96.8700	  835.00	  843.03	-1823.28	  397.24
     96.9700	  944.00	  887.32	-1758.57	  396.96
     97.0700	  941.00	  940.52	-1814.77	  396.67
     97.1700	  951.00	 1001.79	-1866.04	  396.39
     97.2700	 1022.00	 1069.80	-1863.05	  396.10
     97.3700	 1147.00	 1142.68	-1810.93	  395.81
     97.4700	 1193.00	 1218.01	-1840.26	  395.52
     97.5700	 1282.00	 1292.80	-1826.05	  395.23
     97.6700	 1284.00	 1363.49	-1894.74	  394.94
     97.7700	 1443.00	 1426.05	-1798.30	  394.64
     97.8700	 1427.00	 1476.31	-1864.56	  394.35
     97.9700	 1466.00	 1510.45	-1859.70	  394.05
     98.0700	 1523.00	 1525.75	-1818.00	  393.76
     98.1700	 1486.00	 1521.15	-1850.40	  393.46
     98.2700	 1475.00	 1497.57	-1837.82	  393.16
     98.3700	 1425.00	 1457.61	-1847.86	  392.86
     98.4700	 1342.00	 1404.93	-1878.18	  392.56
     98.5700	 1316.00	 1343.61	-1842.86	  392.25
     98.6700	 1255.00	 1277.64	-1837.89	  391.95
     98.7700	 1184.00	 1210.69	-1841.94	  391.65
     98.8700	 1148.00	 1145.97	-1813.22	  391.34
     98.9700	 1082.00	 1086.20	-1819.45	  391.04
     99.0700	 1026.00	 1033.60	-1822.85	  390.73
     99.1700	  943.00	  990.00	-1862.25	  390.42
     99.2700	  941.00	  956.83	-1831.08	  390.11
     99.3700	  906.00	  935.20	-1844.45	  389.80
     99.4700	  977.00	  925.90	-1764.15	  389.49
     99.5700	 1013.00	  929.38	-1731.63	  389.18
     99.6700	  889.00	  945.89	-1872.14	  388.87
     99.7700	 1016.00	  975.40	-1774.65	  388.55
     99.8700	 1009.00	 1017.60	-1823.85	  388.24
     99.9700	 1092.00	 1071.93	-1795.18	  387.93
    100.0700	 1125.00	 1137.47	-1827.72	  387.61
    100.1700	 1214.00	 1212.99	-1814.24	  387.29
    100.2700	 1315.00	 1296.85	-1797.10	  386.98
    100.3700	 1423.00	 1386.91	-1779.16	  386.66
    100.4700	 1485.00	 1480.51	-1810.76	  386.34
    100.5700	 1595.00	 1574.55	-1794.80	  386.03
    100.6700	 1687.00	 1665.59	-1793.84	  385.71
    100.7700	 1743.00	 1750.13	-1822.38	  385.39
    100.8700	 1864.00	 1824.96	-1776.21	  385.07
    100.9700	 1930.00	 1887.51	-1772.76	  384.75
    101.0700	 1985.00	 1936.08	-1766.33	  384.43
    101.1700	 1937.00	 1969.57	-1847.82	  384.11
    101.2700	 2011.00	 1987.28	-1791.53	  383.78
    101.3700	 2006.00	 1988.73	-1797.98	  383.46
    101.4700	 1976.00	 1973.69	-1812.94	  383.14
    101.5700	 1999.00	 1942.53	-1758.78	  382.82
    101.6700	 1927.00	 1896.55	-1784.80	  382.49
    101.7700	 1905.00	 1838.11	-1748.36	  382.17
    101.8700	 1815.00	 1770.57	-1770.82	  381.85
    101.9700	 1745.00	 1697.77	-1768.02	  381.52
    102.0700	 1587.00	 1623.52	-1851.77	  381.20
    102.1700	 1527.00	 1551.18	-1839.43	  380.88
    102.2700	 1484.00	 1483.41	-1814.66	  380.55
    102.3700	 1454.00	 1422.10	-1783.35	  380.23
    102.4700	 1353.00	 1368.32	-1830.57	  379.90
    102.5700	 1277.00	 1322.38	-1860.63	  379.58
    102.6700	 1279.00	 1283.89	-1820.14	  379.26
    102.7700	 1238.00	 1251.84	-1829.09	  378.93
    102.8700	 1194.00	 1224.72	-1845.97	  378.61
    102.9700	 1195.00	 1200.63	-1820.88	  378.29
    103.0700	 1148.00	 1177.55	-1844.80	  377.96
    103.1700	 1101.00	 1153.51	-1867.76	  377.64
    103.2700	 1092.00	 1126.98	-1850.23	  377.31
    103.3700	 1101.00	 1097.06	-1811.31	  376.99
    103.4700	 1083.00	 1063.53	-1795.78	  376.67
    103.5700	 1043.00	 1026.76	-1799.01	  376.35
    103.6700	 1003.00	  987.56	-1799.81	  376.02
    103.7700	  931.00	  946.90	-1831.15	  375.70
    103.8700	  913.00	  905.81	-1808.06	  375.38
    103.9700	  878.00	  865.26	-1802.51	  375.06
    104.0700	  857.00	  826.08	-1784.33	  374.74
    104.1700	  835.00	  788.98	-1769.23	  374.42
    104.2700	  770.00	  754.50	-1799.75	  374.10
    104.3700	  727.00	  723.03	-1811.28	  373.78
    104.4700	  699.00	  694.80	-1811.05	  373.46
    104.5700	  661.00	  669.91	-1824.16	  373.15
    104.6700	  707.00	  648.34	-1756.59	  372.83
    104.7700	  644.00	  629.95	-1801.20	  372.51
    104.8700	  612.00	  614.53	-1817.78	  372.20
    104.9700	  653.00	  601.83	-1764.08	  371.88
    105.0700	  563.00	  591.54	-1843.79	  371.57
    105.1700	  643.00	  583.37	-1755.62	  371.26
    105.2700	  630.00	  577.04	-1762.29	  370.94
    105.3700	  605.00	  572.29	-1782.54	  370.63
    105.4700	  601.00	  568.88	-1783.13	  370.32
    105.5700	  582.00	  566.63	-1799.88	  370.01
    105.6700	  595.00	  565.40	-1785.65	  369.71
    105.7700	  548.00	  565.06	-1832.31	  369.40
    105.8700	  585.00	  565.54	-1795.79	  369.09
    105.9700	  586.00	  566.81	-1796.06	  368.79
    106.0700	  587.00	  568.84	-1797.09	  368.49
    106.1700	  621.00	  571.63	-1765.88	  368.18
    106.2700	  553.00	  575.21	-1837.46	  367.88
    106.3700	  646.00	  579.62	-1748.87	  367.58
    106.4700	  588.00	  584.89	-1812.14	  367.29
    106.5700	  617.00	  591.05	-1789.30	  366.99
    106.6700	  592.00	  598.12	-1821.37	  366.69
    106.7700	  594.00	  606.06	-1827.31	  366.40
    106.8700	  615.00	  614.81	-1815.06	  366.11
    106.9700	  625.00	  624.27	-1814.52	  365.82
    107.0700	  602.00	  634.27	-1847.52	  365.53
    107.1700	  640.00	  644.63	-1819.88	  365.24
    107.2700	  677.00	  655.07	-1793.32	  364.96
    107.3700	  695.00	  665.29	-1785.54	  364.67
    107.4700	  680.00	  674.95	-1810.20	  364.39
    107.5700	  671.00	  683.70	-1827.95	  364.11
    107.6700	  731.00	  691.18	-1775.43	  363.83
    107.7700	  697.00	  697.09	-1815.34	  363.56
    107.8700	  706.00	  701.23	-1810.48	  363.28
    107.9700	  711.00	  703.56	-1807.81	  363.01
    108.0700	  724.00	  704.17	-1795.42	  362.74
    108.1700	  706.00	  703.31	-1812.56	  362.47
    108.2700	  696.00	  701.32	-1820.56	  362.21
    108.3700	  728.00	  698.62	-1785.87	  361.94
    108.4700	  711.00	  695.61	-1799.86	  361.68
    108.5700	  670.00	  692.61	-1837.86	  361.42
    108.6700	  716.00	  689.90	-1789.15	  361.17
    108.7700	  733.00	  687.67	-1769.92	  360.91
    108.8700	  747.00	  686.03	-1754.28	  360.66
    108.9700	  698.00	  685.00	-1802.25	  360.41
    109.0700	  751.00	  684.51	-1748.76	  360.16
    109.1700	  726.00	  684.40	-1773.65	  359.92
    109.2700	  727.00	  684.43	-1772.68	  359.68
    109.3700	  750.00	  684.34	-1749.59	  359.44
    109.4700	  706.00	  683.80	-1793.05	  359.20
    109.5700	  706.00	  682.52	-1791.77	  358.97
    109.6700	  714.00	  680.24	-1781.49	  358.74
    109.7700	  725.00	  676.80	-1767.05	  358.51
    109.8700	  717.00	  672.16	-1770.41	  358.29
    109.9700	  759.00	  666.39	-1722.64	  358.07
    110.0700	  698.00	  659.66	-1776.91	  357.85
    110.1700	  665.00	  652.20	-1802.45	  357.64
    110.2700	  665.00	  644.27	-1794.52	  357.42
    110.3700	  678.00	  636.13	-1773.38	  357.22
    110.4700	  659.00	  628.03	-1784.28	  357.01
    110.5700	  664.00	  620.20	-1771.45	  356.81
    110.6700	  630.00	  612.84	-1798.09	  356.61
    110.7700	  668.00	  606.11	-1753.36	  356.41
    110.8700	  583.00	  600.13	-1832.38	  356.22
    110.9700	  588.00	  595.05	-1822.30	  356.04
    111.0700	  645.00	  590.89	-1761.14	  355.85
    111.1700	  598.00	  587.71	-1804.96	  355.67
    111.2700	  616.00	  585.51	-1784.76	  355.49
    111.3700	  586.00	  584.26	-1813.51	  355.32
    111.4700	  607.00	  583.91	-1792.16	  355.15
    111.5700	  559.00	  584.40	-1840.65	  354.99
    111.6700	  578.00	  585.65	-1822.90	  354.82
    111.7700	  602.00	  587.54	-1800.79	  354.67
    111.8700	  576.00	  589.97	-1829.22	  354.51
    111.9700	  522.00	  592.83	-1886.08	  354.36
    112.0700	  573.00	  595.98	-1838.23	  354.22
    112.1700	  574.00	  599.31	-1840.56	  354.08
    112.2700	  527.00	  602.71	-1890.96	  353.94
    112.3700	  570.00	  606.05	-1851.30	  353.81
    112.4700	  597.00	  609.26	-1827.51	  353.68
    112.5700	  598.00	  612.28	-1829.53	  353.56
    112.6700	  577.00	  615.07	-1853.32	  353.44
    112.7700	  569.00	  617.66	-1863.91	  353.33
    112.8700	  582.00	  620.09	-1853.34	  353.22
    112.9700	  596.00	  622.44	-1841.69	  353.11
    113.0700	  629.00	  624.82	-1811.07	  353.02
    113.1700	  606.00	  627.36	-1836.61	  352.92
    113.2700	  592.00	  630.19	-1853.44	  352.83
    113.3700	  620.00	  633.46	-1828.71	  352.75
    113.4700	  644.00	  637.36	-1808.61	  352.67
    113.5700	  613.00	  642.07	-1844.32	  352.59
    113.6700	  620.00	  647.81	-1843.06	  352.52
    113.7700	  657.00	  654.86	-1813.11	  352.46
    113.8700	  632.00	  663.53	-1846.78	  352.40
    113.9700	  625.00	  674.20	-1864.45	  352.35
    114.0700	  630.00	  687.35	-1872.60	  352.30
    114.1700	  611.00	  703.54	-1907.79	  352.26
    114.2700	  691.00	  723.48	-1847.73	  352.22
    114.3700	  761.00	  748.00	-1802.25	  352.19
    114.4700	  786.00	  778.10	-1807.35	  352.16
    114.5700	  751.00	  814.95	-1879.20	  352.14
    114.6700	  896.00	  859.92	-1779.17	  352.13
    114.7700	  929.00	  914.55	-1800.80	  352.12
    114.8700	  943.00	  980.59	-1852.84	  352.12
    114.9700	 1040.00	 1059.92	-1835.17	  352.13
    115.0700	 1110.00	 1154.54	-1859.79	  352.14
    115.1700	 1305.00	 1266.57	-1776.82	  352.15
    115.2700	 1453.00	 1398.13	-1760.38	  352.18
    115.3700	 1573.00	 1551.23	-1793.48	  352.21
    115.4700	 1754.00	 1727.71	-1788.96	  352.24
    115.5700	 2041.00	 1929.08	-1703.33	  352.28
    115.6700	 2264.00	 2156.48	-1707.73	  352.33
    115.7700	 2551.00	 2410.50	-1674.75	  352.39
    115.8700	 2742.00	 2690.99	-1764.24	  352.45
    115.9700	 3078.00	 2996.99	-1734.24	  352.52
    116.0700	 3331.00	 3326.61	-1810.86	  352.60
    116.1700	 3674.00	 3677.03	-1818.28	  352.68
    116.2700	 4201.00	 4044.40	-1658.65	  352.77
    116.3700	 4445.00	 4423.66	-1793.91	  352.87
    116.4700	 4692.00	 4808.70	-1931.95	  352.97
    116.5700	 5119.00	 5192.28	-1888.53	  353.08
    116.6700	 5500.00	 5566.20	-1881.45	  353.20
    116.7700	 5872.00	 5921.46	-1864.71	  353.33
    116.8700	 6330.00	 6248.16	-1733.41	  353.46
    116.9700	 6415.00	 6536.10	-1936.35	  353.60
    117.0700	 6747.00	 6775.22	-1843.47	  353.75
    117.1700	 7025.00	 6956.43	-1746.68	  353.91
    117.2700	 7057.00	 7072.27	-1830.52	  354.07
    117.3700	 7261.00	 7117.79	-1672.04	  354.24
    117.4700	 6911.00	 7091.21	-1995.46	  354.42
    117.5700	 7027.00	 6994.16	-1782.41	  354.61
    117.6700	 6633.00	 6831.43	-2013.68	  354.81
    117.7700	 6547.00	 6610.26	-1878.51	  355.01
    117.8700	 6184.00	 6339.74	-1970.99	  355.23
    117.9700	 6022.00	 6029.75	-1823.00	  355.45
    118.0700	 5521.00	 5690.43	-1984.68	  355.68
    118.1700	 5194.00	 5331.43	-1952.68	  355.91
    118.2700	 4864.00	 4961.68	-1912.93	  356.16
    118.3700	 4689.00	 4589.29	-1715.54	  356.42
    118.4700	 4335.00	 4221.31	-1701.56	  356.68
    118.5700	 3914.00	 3863.71	-1764.96	  356.95
    118.6700	 3611.00	 3521.27	-1725.52	  357.23
    118.7700	 3254.00	 3197.68	-1758.93	  357.53
    118.8700	 3003.00	 2895.72	-1707.97	  357.83
    118.9700	 2656.00	 2617.16	-1776.41	  358.13
    119.0700	 2378.00	 2362.94	-1800.19	  358.45
    119.1700	 2151.00	 2133.26	-1797.51	  358.78
    119.2700	 1924.00	 1927.63	-1818.88	  359.12
    119.3700	 1800.00	 1745.20	-1760.45	  359.46
    119.4700	 1626.00	 1584.65	-1773.90	  359.82
    119.5700	 1512.00	 1444.43	-1747.68	  360.19
    119.6700	 1384.00	 1322.77	-1754.02	  360.56
    119.7700	 1178.00	 1217.81	-1855.06	  360.95
    119.8700	 1165.00	 1127.71	-1777.96	  361.34
    119.9700	 1097.00	 1050.69	-1768.94	  361.75
    120.0700	 1001.00	  985.03	-1799.28	  362.16
    120.1700	  906.00	  929.17	-1838.42	  362.59
    120.2700	  916.00	  881.69	-1780.94	  363.03
    120.3700	  875.00	  841.34	-1781.59	  363.47
    120.4700	  806.00	  807.05	-1816.30	  363.93
    120.5700	  754.00	  777.88	-1839.13	  364.40
    120.6700	  760.00	  753.04	-1808.29	  364.88
    120.7700	  715.00	  731.89	-1832.14	  365.37
    120.8700	  689.00	  713.86	-1840.11	  365.87
    120.9700	  693.00	  698.53	-1820.78	  366.38
    121.0700	  674.00	  685.52	-1826.77	  366.90
    121.1700	  654.00	  674.53	-1835.78	  367.43
    121.2700	  623.00	  665.31	-1857.56	  367.98
    121.3700	  633.00	  657.67	-1839.92	  368.53
    121.4700	  659.00	  651.45	-1807.70	  369.10
    121.5700	  631.00	  646.50	-1830.75	  369.68
    121.6700	  645.00	  642.72	-1812.97	  370.27
    121.7700	  621.00	  640.00	-1834.25	  370.87
    121.8700	  614.00	  638.25	-1839.50	  371.48
    121.9700	  648.00	  637.39	-1804.64	  372.11
    122.0700	  666.00	  637.36	-1786.61	  372.75
    122.1700	  610.00	  638.07	-1843.32	  373.40
    122.2700	  624.00	  639.47	-1830.72	  374.06
    122.3700	  641.00	  641.46	-1815.71	  374.74
    122.4700	  633.00	  643.98	-1826.23	  375.42
    122.5700	  648.00	  646.94	-1814.19	  376.12
    122.6700	  631.00	  650.27	-1834.52	  376.83
    122.7700	  636.00	  653.86	-1833.11	  377.56
    122.8700	  650.00	  657.62	-1822.87	  378.30
    122.9700	  705.00	  661.45	-1771.70	  379.05
    123.0700	  674.00	  665.24	-1806.49	  379.81
    123.1700	  685.00	  668.87	-1799.12	  380.59
    123.2700	  696.00	  672.24	-1791.49	  381.38
    123.3700	  692.00	  675.25	-1798.50	  382.18
    123.4700	  675.00	  677.78	-1818.03	  383.00
    123.5700	  714.00	  679.78	-1781.03	  383.83
    123.6700	  690.00	  681.16	-1806.41	  384.67
    123.7700	  735.00	  681.92	-1762.17	  385.53
    123.8700	  689.00	  682.03	-1808.28	  386.40
    123.9700	  637.00	  681.53	-1859.78	  387.28
    124.0700	  663.00	  680.46	-1832.71	  388.18
    124.1700	  688.00	  678.89	-1806.14	  389.10
    124.2700	  685.00	  676.90	-1807.15	  390.02
    124.3700	  689.00	  674.55	-1800.80	  390.97
    124.4700	  622.00	  671.95	-1865.20	  391.92
    124.5700	  645.00	  669.16	-1839.41	  392.89
    124.6700	  707.00	  666.26	-1774.51	  393.88
    124.7700	  632.00	  663.29	-1846.54	  394.88
    124.8700	  647.00	  660.37	-1828.62	  395.90
    124.9700	  624.00	  508.29	-1699.54	  396.93
    125.0700	  621.00	  509.34	-1815.25	  397.97
    125.1700	  664.00	  510.40	-1815.25	  399.03
    125.2700	  593.00	  511.48	-1815.25	  400.11
    125.3700	  637.00	  512.57	-1815.25	  401.20
    125.4700	  641.00	  513.68	-1815.25	  402.31
    125.5700	  585.00	  514.80	-1815.25	  403.43
    125.6700	  611.00	  515.94	-1815.25	  404.57
    125.7700	  584.00	  517.09	-1815.25	  405.73
    125.8700	  625.00	  518.26	-1815.25	  406.90
    125.9700	  623.00	  519.45	-1815.25	  408.08
    126.0700	  595.00	  520.65	-1815.25	  409.29
    126.1700	  592.00	  521.87	-1815.25	  410.51
    126.2700	  614.00	  523.11	-1815.25	  411.74
    126.3700	  618.00	  524.36	-1815.25	  413.00
    126.4700	  622.00	  525.63	-1815.25	  414.27
    126.5700	  610.00	  526.92	-1815.25	  415.55
    126.6700	  573.00	  528.22	-1815.25	  416.86
    126.7700	  568.00	  529.54	-1815.25	  418.18
    126.8700	  632.00	  530.88	-1815.25	  419.51
    126.9700	  576.00	  532.24	-1815.25	  420.87
    127.0700	  612.00	  533.61	-1815.25	  422.24
    127.1700	  615.00	  535.00	-1815.25	  423.63
    127.2700	  526.00	  536.41	-1815.25	  425.04
    127.3700	  560.00	  537.83	-1815.25	  426.46
    127.4700	  646.00	  539.27	-1815.25	  427.91
    127.5700	  553.00	  540.74	-1815.25	  429.37
    127.6700	  595.00	  542.22	-1815.25	  430.85
    127.7700	  605.00	  543.71	-1815.25	  432.35
    127.8700	  590.00	  545.23	-1815.25	  433.86
    127.9700	  579.00	  546.77	-1815.25	  435.40
    128.0700	  658.00	  548.32	-1815.25	  436.95
    128.1700	  627.00	  549.89	-1815.25	  438.52
    128.2700	  635.00	  551.48	-1815.25	  440.12
    128.3700	  670.00	  553.09	-1815.25	  441.73
    128.4700	  703.00	  554.72	-1815.25	  443.36
    128.5700	    0.00	  556.37	-1815.25	  445.00
    128.6700	    0.00	  558.04	-1815.25	  446.67
     12.3559	        	        	        	        	       0	(  0  0  2)	  0  1
     24.9959	        	        	        	        	       0	(  0  0  4)	  0  1
     28.4387	        	        	        	        	       0	(  1  0  0)	  0  1
     29.1395	        	        	        	        	       0	(  1  0  1)	  0  1
     31.1560	        	        	        	        	       0	(  1  0  2)	  0  1
     34.2803	        	        	        	        	       0	(  1  0  3)	  0  1
     37.9563	        	        	        	        	       0	(  0  0  6)	  0  1
     38.2778	        	        	        	        	       0	(  1  0  4)	  0  1
     42.9522	        	        	        	        	       0	(  1  0  5)	  0  1
     48.1638	        	        	        	        	       0	(  1  0  6)	  0  1
     50.4720	        	        	        	        	       0	(  1  1  0)	  0  1
     51.4468	        	        	        	        	       0	(  0  0  8)	  0  1
     52.2050	        	        	        	        	       0	(  1  1  2)	  0  1
     53.8252	        	        	        	        	       0	(  1  0  7)	  0  1
     57.1820	        	        	        	        	       0	(  1  1  4)	  0  1
     59.0108	        	        	        	        	       0	(  2  0  0)	  0  1
     59.4047	        	        	        	        	       0	(  2  0  1)	  0  1
     59.8904	        	        	        	        	       0	(  1  0  8)	  0  1
     60.5773	        	        	        	        	       0	(  2  0  2)	  0  1
     62.5025	        	        	        	        	       0	(  2  0  3)	  0  1
     64.9240	        	        	        	        	       0	(  1  1  6)	  0  1
     65.1433	        	        	        	        	       0	(  2  0  4)	  0  1
     65.7578	        	        	        	        	       0	(  0  0 10)	  0  1
     66.3458	        	        	        	        	       0	(  1  0  9)	  0  1
     68.4590	        	        	        	        	       0	(  2  0  5)	  0  1
     72.4130	        	        	        	        	       0	(  2  0  6)	  0  1
     73.2065	        	        	        	        	       0	(  1  0 10)	  0  1
     75.0287	        	        	        	        	       0	(  1  1  8)	  0  1
     76.9792	        	        	        	        	       0	(  2  0  7)	  0  1
     80.5160	        	        	        	        	       0	(  1  0 11)	  0  1
     81.3438	        	        	        	        	       0	(  0  0 12)	  0  1
     81.3818	        	        	        	        	       0	(  2  1  0)	  0  1
     81.7243	        	        	        	        	       0	(  2  1  1)	  0  1
     82.1480	        	        	        	        	       0	(  2  0  8)	  0  1
     82.7502	        	        	        	        	       0	(  2  1  2)	  0  1
     84.4550	        	        	        	        	       0	(  2  1  3)	  0  1
     86.8340	        	        	        	        	       0	(  2  1  4)	  0  1
     87.3941	        	        	        	        	       0	(  1  1 10)	  0  1
     87.9325	        	        	        	        	       0	(  2  0  9)	  0  1
     88.3523	        	        	        	        	       0	(  1  0 12)	  0  1
     89.8856	        	        	        	        	       0	(  2  1  5)	  0  1
     93.6164	        	        	        	        	       0	(  2  1  6)	  0  1
     94.3769	        	        	        	        	       0	(  2  0 10)	  0  1
     95.3759	        	        	        	        	       0	(  3  0  0)	  0  1
     95.7165	        	        	        	        	       0	(  3  0  1)	  0  1
     96.7395	        	        	        	        	       0	(  3  0  2)	  0  1
     96.8425	        	        	        	        	       0	(  1  0 13)	  0  1
     98.0473	        	        	        	        	       0	(  2  1  7)	  0  1
     98.4497	        	        	        	        	       0	(  3  0  3)	  0  1
     99.0378	        	        	        	        	       0	(  0  0 14)	  0  1
    100.8573	        	        	        	        	       0	(  3  0  4)	  0  1
    101.5706	        	        	        	        	       0	(  2  0 11)	  0  1
    102.4070	        	        	        	        	       0	(  1  1 12)	  0  1
    103.2239	        	        	        	        	       0	(  2  1  8)	  0  1
    103.9826	        	        	        	        	       0	(  3  0  5)	  0  1
    106.1961	        	        	        	        	       0	(  1  0 14)	  0  1
    107.8627	        	        	        	        	       0	(  3  0  6)	  0  1
    109.2313	        	        	        	        	       0	(  2  1  9)	  0  1
    109.6767	        	        	        	        	       0	(  2  0 12)	  0  1
    112.5631	        	        	        	        	       0	(  3  0  7)	  0  1
    116.2239	        	        	        	        	       0	(  2  1 10)	  0  1
    116.7837	        	        	        	        	       0	(  1  0 15)	  0  1
    117.3400	        	        	        	        	       0	(  2  2  0)	  0  1
    118.1983	        	        	        	        	       0	(  3  0  8)	  0  1
    118.8789	        	        	        	        	       0	(  2  2  2)	  0  1
    118.9959	        	        	        	        	       0	(  2  0 13)	  0  1
    120.8168	        	        	        	        	       0	(  0  0 16)	  0  1
    121.5156	        	        	        	        	       0	(  1  1 14)	  0  1
    123.6448	        	        	        	        	       0	(  2  2  4)	  0  1
    124.4904	        	        	        	        	       0	(  2  1 11)	  0  1
    124.9756	        	        	        	        	       0	(  3  0  9)	  0  1
    125.5364	        	        	        	        	       0	(  3  1  0)	  0  1
    125.9547	        	        	        	        	       0	(  3  1  1)	  0  1
    127.2232	        	        	        	        	       0	(  3  1  2)	  0  1
    129.3659	        	        	        	        	       0	(  1  0 16)	  0  1
    129.3867	        	        	        	        	       0	(  3  1  3)	  0  1
    130.1441	        	        	        	        	       0	(  2  0 14)	  0  1
    132.2649	        	        	        	        	       0	(  2  2  6)	  0  1
    132.5350	        	        	        	        	       0	(  3  1  4)	  0  1
    133.3007	        	        	        	        	       0	(  3  0 10)	  0  1
    134.6341	        	        	        	        	       0	(  2  1 12)	  0  1
    136.8361	        	        	        	        	       0	(  3  1  5)	  0  1
    142.6217	        	        	        	        	       0	(  3  1  6)	  0  1
    144.1325	        	        	        	        	       0	(  3  0 11)	  0  1
    144.7544	        	        	        	        	       0	(  2  0 15)	  0  1
    146.0956	        	        	        	        	       0	(  1  0 17)	  0  1
    146.9964	        	        	        	        	       0	(  2  2  8)	  0  1
    148.3083	        	        	        	        	       0	(  2  1 13)	  0  1
    150.6701	        	        	        	        	       0	(  3  1  7)	  0  1
    151.4630	        	        	        	        	       0	(  1  1 16)	  0  1
    156.2887	        	        	        	        	       0	(  0  0 18)	  0  1
    161.2689	        	        	        	        	       0	(  3  0 12)	  0  1
    161.3872	        	        	        	        	       0	(  4  0  0)	  0  1
    162.4881	        	        	        	        	       0	(  4  0  1)	  0  1
    163.9529	        	        	        	        	       0	(  3  1  8)	  0  1
    166.2998	        	        	        	        	       0	(  4  0  2)	  0  1
