MSG Master    CELL:    5.88147   5.88147  23.10659   90.0000   90.0000  120.0000   SPGR: P 63/m m c             TEMP:    546.25
  2   1280     2.52000     0.00000    -0.09181     0.00000     0.00000    0
    96    96     0     0     2
       0.00000      10.00000
     125.00000     130.00000
 2Theta	Yobs	Ycal	Yobs-Ycal	Backg	Posr	(hkl)	K
      0.7700	    0.00	  908.33	-1951.67	  775.21
      0.8700	    0.00	  905.62	-1951.67	  772.50
      0.9700	   46.00	  902.92	-1951.67	  769.80
      1.0700	   49.00	  900.23	-1951.67	  767.12
      1.1700	   49.00	  897.57	-1951.67	  764.45
      1.2700	   42.00	  894.92	-1951.67	  761.80
      1.3700	   51.00	  892.28	-1951.67	  759.16
      1.4700	   97.00	  889.66	-1951.67	  756.54
      1.5700	  276.00	  887.05	-1951.67	  753.94
      1.6700	  463.00	  884.46	-1951.67	  751.35
      1.7700	  592.00	  881.89	-1951.67	  748.77
      1.8700	  614.00	  879.33	-1951.67	  746.21
      1.9700	  665.00	  876.78	-1951.67	  743.67
      2.0700	  772.00	  874.26	-1951.67	  741.14
      2.1700	  771.00	  871.74	-1951.67	  738.62
      2.2700	  770.00	  869.24	-1951.67	  736.12
      2.3700	  680.00	  866.76	-1951.67	  733.64
      2.4700	  708.00	  864.29	-1951.67	  731.17
      2.5700	  682.00	  861.83	-1951.67	  728.71
      2.6700	  673.00	  859.39	-1951.67	  726.27
      2.7700	  638.00	  856.97	-1951.67	  723.85
      2.8700	  624.00	  854.56	-1951.67	  721.44
      2.9700	  619.00	  852.16	-1951.67	  719.04
      3.0700	  598.00	  849.78	-1951.67	  716.66
      3.1700	  626.00	  847.41	-1951.67	  714.29
      3.2700	  730.00	  845.06	-1951.67	  711.94
      3.3700	  919.00	  842.72	-1951.67	  709.60
      3.4700	 1079.00	  840.40	-1951.67	  707.28
      3.5700	 1208.00	  838.09	-1951.67	  704.97
      3.6700	 1331.00	  835.79	-1951.67	  702.67
      3.7700	 1425.00	  833.51	-1951.67	  700.39
      3.8700	 1523.00	  831.24	-1951.67	  698.12
      3.9700	 1567.00	  828.99	-1951.67	  695.87
      4.0700	 1671.00	  826.75	-1951.67	  693.63
      4.1700	 1750.00	  824.52	-1951.67	  691.40
      4.2700	 1738.00	  822.31	-1951.67	  689.19
      4.3700	 1602.00	  820.11	-1951.67	  686.99
      4.4700	 1587.00	  817.93	-1951.67	  684.81
      4.5700	 1549.00	  815.75	-1951.67	  682.64
      4.6700	 1527.00	  813.60	-1951.67	  680.48
      4.7700	 1468.00	  811.45	-1951.67	  678.34
      4.8700	 1380.00	  809.32	-1951.67	  676.21
      4.9700	 1297.00	  807.21	-1951.67	  674.09
      5.0700	 1358.00	  805.10	-1951.67	  671.99
      5.1700	 1352.00	  803.01	-1951.67	  669.90
      5.2700	 1307.00	  800.94	-1951.67	  667.82
      5.3700	 1173.00	  798.87	-1951.67	  665.76
      5.4700	 1140.00	  796.82	-1951.67	  663.71
      5.5700	 1128.00	  794.79	-1951.67	  661.67
      5.6700	 1167.00	  792.76	-1951.67	  659.64
      5.7700	 1150.00	  790.75	-1951.67	  657.63
      5.8700	 1117.00	  788.75	-1951.67	  655.64
      5.9700	 1107.00	  786.77	-1951.67	  653.65
      6.0700	 1030.00	  784.80	-1951.67	  651.68
      6.1700	 1076.00	  782.84	-1951.67	  649.72
      6.2700	  979.00	  780.89	-1951.67	  647.77
      6.3700	 1023.00	  778.96	-1951.67	  645.84
      6.4700	 1019.00	  777.04	-1951.67	  643.92
      6.5700	  975.00	  775.13	-1951.67	  642.01
      6.6700	  954.00	  773.23	-1951.67	  640.11
      6.7700	 1010.00	  771.35	-1951.67	  638.23
      6.8700	  950.00	  769.48	-1951.67	  636.36
      6.9700	  913.00	  767.62	-1951.67	  634.50
      7.0700	  920.00	  765.77	-1951.67	  632.65
      7.1700	  867.00	  763.94	-1951.67	  630.82
      7.2700	  875.00	  762.11	-1951.67	  629.00
      7.3700	  886.00	  760.30	-1951.67	  627.19
      7.4700	  827.00	  758.51	-1951.67	  625.39
      7.5700	  834.00	  756.72	-1951.67	  623.60
      7.6700	  832.00	  754.95	-1951.67	  621.83
      7.7700	  819.00	  753.19	-1951.67	  620.07
      7.8700	  792.00	  751.44	-1951.67	  618.32
      7.9700	  770.00	  749.70	-1951.67	  616.58
      8.0700	  858.00	  747.97	-1951.67	  614.85
      8.1700	  782.00	  746.26	-1951.67	  613.14
      8.2700	  799.00	  744.56	-1951.67	  611.44
      8.3700	  777.00	  742.87	-1951.67	  609.75
      8.4700	  765.00	  741.19	-1951.67	  608.07
      8.5700	  769.00	  739.52	-1951.67	  606.40
      8.6700	  774.00	  737.86	-1951.67	  604.74
      8.7700	  807.00	  736.22	-1951.67	  603.10
      8.8700	  737.00	  734.59	-1951.67	  601.47
      8.9700	  687.00	  732.96	-1951.67	  599.85
      9.0700	  760.00	  731.35	-1951.67	  598.24
      9.1700	  738.00	  729.75	-1951.67	  596.64
      9.2700	  704.00	  728.17	-1951.67	  595.05
      9.3700	  757.00	  726.59	-1951.67	  593.47
      9.4700	  747.00	  725.02	-1951.67	  591.91
      9.5700	  750.00	  723.47	-1951.67	  590.35
      9.6700	  756.00	  721.93	-1951.67	  588.81
      9.7700	  780.00	  720.39	-1951.67	  587.28
      9.8700	  757.00	  718.87	-1951.67	  585.75
      9.9700	  738.00	  717.36	-1951.67	  584.24
     10.0700	  697.00	  717.93	-1972.59	  582.74
     10.1700	  741.00	  716.66	-1927.33	  581.25
     10.2700	  748.00	  715.45	-1919.12	  579.78
     10.3700	  750.00	  714.31	-1915.98	  578.31
     10.4700	  681.00	  713.27	-1983.94	  576.85
     10.5700	  738.00	  712.37	-1926.03	  575.41
     10.6700	  679.00	  711.66	-1984.32	  573.97
     10.7700	  685.00	  711.23	-1977.90	  572.54
     10.8700	  665.00	  711.18	-1997.85	  571.13
     10.9700	  685.00	  711.60	-1978.27	  569.73
     11.0700	  739.00	  712.53	-1925.20	  568.33
     11.1700	  704.00	  713.99	-1961.65	  566.95
     11.2700	  698.00	  715.99	-1969.65	  565.57
     11.3700	  722.00	  718.58	-1948.25	  564.21
     11.4700	  745.00	  721.87	-1928.53	  562.86
     11.5700	  763.00	  726.00	-1914.66	  561.51
     11.6700	  763.00	  731.20	-1919.87	  560.18
     11.7700	  765.00	  737.78	-1924.45	  558.86
     11.8700	  810.00	  746.04	-1887.71	  557.55
     11.9700	  783.00	  756.05	-1924.71	  556.24
     12.0700	  820.00	  767.20	-1898.86	  554.95
     12.1700	  860.00	  777.67	-1869.34	  553.67
     12.2700	  816.00	  783.88	-1919.54	  552.39
     12.3700	  821.00	  780.85	-1911.51	  551.13
     12.4700	  840.00	  766.31	-1877.98	  549.88
     12.5700	  760.00	  745.40	-1937.06	  548.63
     12.6700	  732.00	  725.51	-1945.17	  547.40
     12.7700	  701.00	  710.05	-1960.71	  546.17
     12.8700	  674.00	  699.20	-1976.87	  544.96
     12.9700	  690.00	  691.87	-1953.53	  543.75
     13.0700	  697.00	  686.87	-1941.53	  542.56
     13.1700	  666.00	  683.26	-1968.93	  541.37
     13.2700	  665.00	  680.45	-1967.12	  540.19
     13.3700	  638.00	  678.11	-1991.77	  539.02
     13.4700	  644.00	  676.06	-1983.72	  537.86
     13.5700	  646.00	  674.21	-1979.87	  536.71
     13.6700	  686.00	  672.51	-1938.17	  535.57
     13.7700	  647.00	  670.92	-1975.58	  534.44
     13.8700	  634.00	  669.42	-1987.09	  533.32
     13.9700	  657.00	  667.99	-1962.66	  532.20
     14.0700	  680.00	  666.63	-1938.29	  531.10
     14.1700	  671.00	  665.31	-1945.97	  530.00
     14.2700	  701.00	  664.03	-1914.69	  528.92
     14.3700	  656.00	  662.78	-1958.45	  527.84
     14.4700	  622.00	  661.57	-1991.24	  526.77
     14.5700	  606.00	  660.39	-2006.05	  525.71
     14.6700	  594.00	  659.22	-2016.89	  524.66
     14.7700	  663.00	  658.08	-1946.75	  523.62
     14.8700	  655.00	  656.96	-1953.63	  522.58
     14.9700	  615.00	  655.86	-1992.52	  521.56
     15.0700	  630.00	  654.77	-1976.44	  520.54
     15.1700	  640.00	  653.70	-1965.37	  519.53
     15.2700	  672.00	  652.65	-1932.31	  518.53
     15.3700	  592.00	  651.60	-2011.27	  517.54
     15.4700	  655.00	  650.57	-1947.24	  516.56
     15.5700	  620.00	  649.56	-1981.22	  515.58
     15.6700	  620.00	  648.55	-1980.22	  514.62
     15.7700	  647.00	  647.56	-1952.23	  513.66
     15.8700	  620.00	  646.58	-1978.24	  512.71
     15.9700	  635.00	  645.61	-1962.27	  511.77
     16.0700	  642.00	  644.65	-1954.31	  510.83
     16.1700	  681.00	  643.70	-1914.36	  509.91
     16.2700	  609.00	  642.76	-1985.42	  508.99
     16.3700	  667.00	  641.83	-1926.49	  508.08
     16.4700	  630.00	  640.90	-1962.57	  507.18
     16.5700	  681.00	  639.99	-1910.66	  506.29
     16.6700	  600.00	  639.09	-1990.76	  505.40
     16.7700	  626.00	  638.20	-1963.86	  504.52
     16.8700	  596.00	  637.31	-1992.98	  503.65
     16.9700	  695.00	  636.44	-1893.10	  502.79
     17.0700	  659.00	  635.57	-1928.24	  501.94
     17.1700	  615.00	  634.71	-1971.38	  501.09
     17.2700	  598.00	  633.87	-1987.53	  500.25
     17.3700	  591.00	  633.02	-1993.69	  499.42
     17.4700	  628.00	  632.19	-1955.86	  498.60
     17.5700	  628.00	  631.37	-1955.03	  497.78
     17.6700	  664.00	  630.55	-1918.22	  496.97
     17.7700	  636.00	  629.74	-1945.41	  496.17
     17.8700	  620.00	  628.94	-1960.61	  495.38
     17.9700	  613.00	  628.15	-1966.82	  494.59
     18.0700	  635.00	  627.37	-1944.03	  493.81
     18.1700	  579.00	  626.59	-1999.26	  493.04
     18.2700	  644.00	  625.82	-1933.49	  492.28
     18.3700	  604.00	  625.06	-1972.73	  491.52
     18.4700	  632.00	  624.31	-1943.97	  490.77
     18.5700	  627.00	  623.56	-1948.23	  490.03
     18.6700	  687.00	  622.82	-1887.49	  489.29
     18.7700	  677.00	  622.09	-1896.76	  488.56
     18.8700	  651.00	  621.37	-1922.03	  487.84
     18.9700	  586.00	  623.54	-1989.21	  487.13
     19.0700	  667.00	  622.89	-1907.56	  486.42
     19.1700	  593.00	  622.25	-1980.92	  485.72
     19.2700	  635.00	  621.63	-1938.29	  485.02
     19.3700	  619.00	  621.00	-1953.67	  484.34
     19.4700	  625.00	  620.39	-1947.06	  483.66
     19.5700	  624.00	  619.79	-1947.46	  482.98
     19.6700	  636.00	  619.20	-1934.87	  482.31
     19.7700	  614.00	  618.62	-1956.28	  481.65
     19.8700	  633.00	  618.05	-1936.71	  481.00
     19.9700	  586.00	  617.48	-1983.15	  480.35
     20.0700	  587.00	  616.93	-1981.60	  479.71
     20.1700	  686.00	  616.44	-1882.11	  479.08
     20.2700	  593.00	  615.91	-1974.58	  478.45
     20.3700	  592.00	  615.39	-1975.05	  477.83
     20.4700	  627.00	  614.88	-1939.54	  477.22
     20.5700	  636.00	  614.38	-1930.04	  476.61
     20.6700	  638.00	  613.89	-1927.56	  476.01
     20.7700	  595.00	  613.41	-1970.08	  475.41
     20.8700	  604.00	  612.95	-1960.61	  474.82
     20.9700	  627.00	  612.49	-1937.16	  474.24
     21.0700	  619.00	  612.05	-1944.71	  473.66
     21.1700	  609.00	  611.62	-1954.28	  473.09
     21.2700	  610.00	  611.20	-1952.87	  472.53
     21.3700	  617.00	  610.79	-1945.46	  471.97
     21.4700	  603.00	  610.40	-1959.07	  471.42
     21.5700	  627.00	  610.02	-1934.69	  470.87
     21.6700	  611.00	  609.66	-1950.33	  470.33
     21.7700	  611.00	  609.31	-1949.98	  469.80
     21.8700	  602.00	  608.98	-1958.65	  469.27
     21.9700	  579.00	  608.66	-1981.33	  468.75
     22.0700	  594.00	  608.36	-1966.03	  468.23
     22.1700	  604.00	  608.08	-1955.75	  467.72
     22.2700	  623.00	  607.82	-1936.49	  467.22
     22.3700	  614.00	  607.58	-1945.24	  466.72
     22.4700	  662.00	  607.55	-1897.22	  466.23
     22.5700	  621.00	  607.36	-1938.02	  465.74
     22.6700	  582.00	  607.19	-1976.86	  465.26
     22.7700	  634.00	  607.05	-1924.71	  464.78
     22.8700	  584.00	  606.93	-1974.60	  464.31
     22.9700	  659.00	  606.85	-1899.52	  463.84
     23.0700	  631.00	  606.81	-1927.48	  463.38
     23.1700	  635.00	  606.81	-1923.47	  462.93
     23.2700	  585.00	  606.85	-1973.52	  462.48
     23.3700	  649.00	  606.95	-1909.61	  462.04
     23.4700	  651.00	  607.11	-1907.77	  461.60
     23.5700	  604.00	  607.34	-1955.01	  461.17
     23.6700	  604.00	  607.67	-1955.34	  460.74
     23.7700	  637.00	  608.12	-1922.78	  460.32
     23.8700	  628.00	  608.73	-1932.39	  459.90
     23.9700	  627.00	  609.57	-1934.23	  459.49
     24.0700	  626.00	  610.76	-1936.42	  459.08
     24.1700	  630.00	  612.50	-1934.16	  458.68
     24.2700	  588.00	  615.01	-1978.67	  458.29
     24.3700	  663.00	  618.79	-1907.46	  457.89
     24.4700	  668.00	  624.23	-1907.90	  457.51
     24.5700	  627.00	  631.63	-1956.29	  457.13
     24.6700	  660.00	  640.93	-1932.60	  456.75
     24.7700	  687.00	  651.50	-1916.17	  456.38
     24.8700	  698.00	  661.72	-1915.39	  456.01
     24.9700	  691.00	  668.72	-1929.39	  455.65
     25.0700	  707.00	  669.04	-1913.70	  455.30
     25.1700	  708.00	  661.82	-1905.48	  454.94
     25.2700	  714.00	  650.89	-1888.55	  454.60
     25.3700	  693.00	  640.71	-1899.38	  454.26
     25.4700	  701.00	  633.32	-1883.99	  453.92
     25.5700	  608.00	  628.76	-1972.42	  453.59
     25.6700	  605.00	  626.54	-1973.21	  453.26
     25.7700	  638.00	  625.99	-1939.66	  452.93
     25.8700	  619.00	  626.58	-1959.25	  452.61
     25.9700	  665.00	  627.96	-1914.62	  452.30
     26.0700	  608.00	  629.95	-1973.62	  451.99
     26.1700	  633.00	  632.51	-1951.18	  451.69
     26.2700	  634.00	  635.64	-1953.31	  451.38
     26.3700	  672.00	  639.40	-1919.06	  451.09
     26.4700	  661.00	  643.86	-1934.52	  450.80
     26.5700	  638.00	  649.14	-1962.80	  450.51
     26.6700	  676.00	  655.40	-1931.06	  450.23
     26.7700	  707.00	  662.85	-1907.51	  449.95
     26.8700	  670.00	  671.77	-1953.43	  449.67
     26.9700	  677.00	  682.54	-1957.20	  449.40
     27.0700	  651.00	  695.67	-1996.34	  449.14
     27.1700	  686.00	  711.90	-1977.56	  448.87
     27.2700	  652.00	  732.29	-2031.96	  448.62
     27.3700	  722.00	  758.59	-1988.25	  448.36
     27.4700	  725.00	  794.08	-2020.75	  448.11
     27.5700	  766.00	  845.77	-2031.44	  447.87
     27.6700	  825.00	  928.73	-2055.40	  447.63
     27.7700	  899.00	 1072.92	-2125.59	  447.39
     27.8700	  999.00	 1330.58	-2283.25	  447.16
     27.9700	 1328.00	 1778.60	-2402.26	  446.93
     28.0700	 1999.00	 2502.64	-2455.31	  446.70
     28.1700	 3226.00	 3549.84	-2275.50	  446.48
     28.2700	 5036.00	 4843.56	-1759.23	  446.26
     28.3700	 6844.00	 6083.79	-1191.46	  446.05
     28.4700	 7788.00	 6735.73	 -899.40	  445.84
     28.5700	 6803.00	 6335.16	-1483.82	  445.63
     28.6700	 5270.00	 5176.71	-1858.37	  445.43
     28.7700	 3822.00	 4092.57	-2222.23	  445.23
     28.8700	 3326.00	 3555.58	-2181.24	  445.04
     28.9700	 3623.00	 3566.42	-1895.09	  444.85
     29.0700	 4142.00	 3840.83	-1650.49	  444.66
     29.1700	 4225.00	 3976.98	-1703.65	  444.47
     29.2700	 3768.00	 3656.00	-1839.67	  444.29
     29.3700	 2910.00	 2941.04	-1982.70	  444.12
     29.4700	 2003.00	 2177.10	-2125.76	  443.94
     29.5700	 1415.00	 1585.47	-2122.14	  443.77
     29.6700	 1164.00	 1206.82	-1994.48	  443.61
     29.7700	  945.00	  993.06	-1999.73	  443.44
     29.8700	  907.00	  878.02	-1922.68	  443.28
     29.9700	  805.00	  812.85	-1959.52	  443.13
     30.0700	  776.00	  771.43	-1947.10	  442.98
     30.1700	  783.00	  742.29	-1910.96	  442.83
     30.2700	  763.00	  720.74	-1909.41	  442.68
     30.3700	  670.00	  704.85	-1986.52	  442.54
     30.4700	  710.00	  693.97	-1935.64	  442.40
     30.5700	  690.00	  688.41	-1950.08	  442.26
     30.6700	  688.00	  689.28	-1952.95	  442.13
     30.7700	  707.00	  698.02	-1942.68	  442.00
     30.8700	  703.00	  715.13	-1963.80	  441.87
     30.9700	  772.00	  738.52	-1918.18	  441.75
     31.0700	  748.00	  762.02	-1965.69	  441.63
     31.1700	  805.00	  775.10	-1921.76	  441.51
     31.2700	  805.00	  766.74	-1913.40	  441.40
     31.3700	  765.00	  737.25	-1923.91	  441.29
     31.4700	  687.00	  700.55	-1965.22	  441.18
     31.5700	  650.00	  668.67	-1970.34	  441.07
     31.6700	  669.00	  645.71	-1928.38	  440.97
     31.7700	  651.00	  631.00	-1931.67	  440.87
     31.8700	  680.00	  622.09	-1893.76	  440.77
     31.9700	  599.00	  616.61	-1969.28	  440.68
     32.0700	  669.00	  612.99	-1895.66	  440.59
     32.1700	  626.00	  610.39	-1936.05	  440.50
     32.2700	  651.00	  608.42	-1909.09	  440.42
     32.3700	  624.00	  606.93	-1934.59	  440.33
     32.4700	  657.00	  605.83	-1900.50	  440.26
     32.5700	  567.00	  605.09	-1989.75	  440.18
     32.6700	  612.00	  604.69	-1944.36	  440.10
     32.7700	  600.00	  604.66	-1956.32	  440.03
     32.8700	  643.00	  605.01	-1913.67	  439.96
     32.9700	  624.00	  605.84	-1933.50	  439.90
     33.0700	  624.00	  607.18	-1934.85	  439.83
     33.1700	  629.00	  609.22	-1931.89	  439.77
     33.2700	  619.00	  612.25	-1944.91	  439.71
     33.3700	  606.00	  616.79	-1962.46	  439.66
     33.4700	  627.00	  623.94	-1948.61	  439.60
     33.5700	  659.00	  635.76	-1928.43	  439.55
     33.6700	  638.00	  655.85	-1969.51	  439.50
     33.7700	  699.00	  689.61	-1942.27	  439.46
     33.8700	  709.00	  743.35	-1986.02	  439.42
     33.9700	  832.00	  821.28	-1940.94	  439.37
     34.0700	  964.00	  920.16	-1907.82	  439.33
     34.1700	 1161.00	 1024.13	-1814.80	  439.30
     34.2700	 1254.00	 1102.84	-1800.50	  439.26
     34.3700	 1243.00	 1118.62	-1827.29	  439.23
     34.4700	 1098.00	 1056.40	-1910.07	  439.20
     34.5700	  985.00	  947.89	-1914.56	  439.17
     34.6700	  817.00	  837.93	-1972.60	  439.15
     34.7700	  798.00	  750.35	-1904.01	  439.13
     34.8700	  645.00	  690.11	-1996.78	  439.11
     34.9700	  720.00	  652.71	-1884.38	  439.09
     35.0700	  670.00	  630.81	-1912.47	  439.07
     35.1700	  659.00	  617.97	-1910.64	  439.06
     35.2700	  633.00	  609.97	-1928.63	  439.04
     35.3700	  592.00	  604.51	-1964.18	  439.03
     35.4700	  620.00	  600.50	-1932.16	  439.02
     35.5700	  577.00	  597.40	-1972.07	  439.02
     35.6700	  594.00	  594.95	-1952.61	  439.01
     35.7700	  612.00	  592.98	-1932.64	  439.01
     35.8700	  637.00	  591.38	-1906.04	  439.01
     35.9700	  612.00	  590.07	-1929.74	  439.01
     36.0700	  634.00	  589.01	-1906.67	  439.02
     36.1700	  574.00	  588.14	-1965.81	  439.02
     36.2700	  590.00	  587.45	-1949.12	  439.03
     36.3700	  605.00	  586.92	-1933.58	  439.04
     36.4700	  641.00	  586.53	-1897.19	  439.05
     36.5700	  589.00	  586.27	-1948.93	  439.06
     36.6700	  603.00	  586.15	-1934.81	  439.08
     36.7700	  562.00	  586.17	-1975.83	  439.09
     36.8700	  591.00	  586.35	-1947.02	  439.11
     36.9700	  611.00	  586.72	-1927.39	  439.13
     37.0700	  597.00	  587.85	-1942.51	  439.15
     37.1700	  619.00	  589.00	-1921.66	  439.17
     37.2700	  576.00	  590.49	-1966.16	  439.20
     37.3700	  575.00	  592.69	-1969.35	  439.23
     37.4700	  625.00	  596.07	-1922.73	  439.25
     37.5700	  621.00	  601.43	-1932.09	  439.28
     37.6700	  614.00	  609.83	-1947.49	  439.31
     37.7700	  609.00	  622.64	-1965.31	  439.35
     37.8700	  636.00	  641.16	-1956.83	  439.38
     37.9700	  623.00	  665.80	-1994.46	  439.42
     38.0700	  648.00	  695.00	-1998.67	  439.45
     38.1700	  709.00	  724.41	-1967.08	  439.49
     38.2700	  740.00	  744.82	-1956.49	  439.53
     38.3700	  685.00	  750.23	-2016.90	  439.58
     38.4700	  670.00	  734.22	-2015.88	  439.62
     38.5700	  694.00	  703.55	-1961.22	  439.66
     38.6700	  596.00	  670.09	-2025.76	  439.71
     38.7700	  605.00	  641.49	-1988.16	  439.76
     38.8700	  614.00	  620.31	-1957.97	  439.80
     38.9700	  605.00	  606.15	-1952.81	  439.85
     39.0700	  582.00	  597.34	-1967.00	  439.91
     39.1700	  587.00	  592.02	-1956.69	  439.96
     39.2700	  599.00	  588.77	-1941.43	  440.01
     39.3700	  535.00	  586.65	-2003.31	  440.07
     39.4700	  642.00	  585.16	-1894.83	  440.12
     39.5700	  602.00	  584.06	-1933.72	  440.18
     39.6700	  605.00	  582.21	-1928.88	  440.24
     39.7700	  587.00	  581.56	-1946.23	  440.30
     39.8700	  539.00	  581.06	-1993.72	  440.36
     39.9700	  581.00	  580.66	-1951.33	  440.42
     40.0700	  613.00	  580.35	-1919.02	  440.48
     40.1700	  556.00	  580.12	-1975.78	  440.55
     40.2700	  628.00	  579.94	-1903.61	  440.61
     40.3700	  605.00	  579.82	-1926.49	  440.68
     40.4700	  575.00	  579.75	-1956.41	  440.75
     40.5700	  580.00	  579.72	-1951.38	  440.82
     40.6700	  614.00	  579.72	-1917.39	  440.89
     40.7700	  562.00	  580.30	-1969.97	  440.96
     40.8700	  599.00	  580.39	-1933.05	  441.03
     40.9700	  510.00	  580.51	-2022.18	  441.10
     41.0700	  594.00	  580.68	-1938.34	  441.17
     41.1700	  556.00	  580.88	-1976.55	  441.25
     41.2700	  547.00	  581.14	-1985.80	  441.32
     41.3700	  553.00	  581.44	-1980.11	  441.40
     41.4700	  603.00	  581.87	-1930.54	  441.48
     41.5700	  610.00	  582.32	-1923.98	  441.55
     41.6700	  555.00	  582.86	-1979.53	  441.63
     41.7700	  569.00	  583.53	-1966.19	  441.71
     41.8700	  587.00	  584.37	-1949.03	  441.79
     41.9700	  607.00	  585.47	-1930.13	  441.87
     42.0700	  568.00	  586.99	-1970.66	  441.95
     42.1700	  556.00	  589.25	-1984.92	  442.04
     42.2700	  536.00	  592.77	-2008.44	  442.12
     42.3700	  591.00	  598.34	-1959.01	  442.20
     42.4700	  594.00	  606.90	-1964.57	  442.29
     42.5700	  621.00	  619.50	-1950.17	  442.37
     42.6700	  612.00	  636.48	-1976.15	  442.46
     42.7700	  601.00	  656.95	-2007.62	  442.55
     42.8700	  635.00	  677.93	-1994.60	  442.63
     42.9700	  636.00	  694.00	-2009.67	  442.72
     43.0700	  607.00	  698.83	-2043.49	  442.81
     43.1700	  697.00	  689.76	-1944.43	  442.90
     43.2700	  664.00	  670.99	-1958.65	  442.99
     43.3700	  599.00	  649.58	-2002.24	  443.08
     43.4700	  642.00	  630.32	-1939.99	  443.17
     43.5700	  613.00	  615.22	-1953.88	  443.26
     43.6700	  618.00	  604.55	-1938.22	  443.35
     43.7700	  627.00	  597.59	-1922.26	  443.44
     43.8700	  619.00	  593.29	-1925.96	  443.54
     43.9700	  603.00	  590.89	-1939.55	  443.63
     44.0700	  616.00	  589.29	-1924.95	  443.72
     44.1700	  568.00	  588.26	-1971.93	  443.82
     44.2700	  540.00	  587.57	-1999.24	  443.91
     44.3700	  559.00	  587.09	-1979.76	  444.01
     44.4700	  578.00	  586.76	-1960.42	  444.10
     44.5700	  588.00	  586.53	-1950.20	  444.20
     44.6700	  611.00	  586.39	-1927.05	  444.30
     44.7700	  625.00	  586.32	-1912.98	  444.39
     44.8700	  610.00	  586.30	-1927.97	  444.49
     44.9700	  601.00	  586.34	-1937.00	  444.59
     45.0700	  608.00	  586.66	-1930.33	  444.68
     45.1700	  563.00	  586.80	-1975.46	  444.78
     45.2700	  609.00	  586.96	-1929.62	  444.88
     45.3700	  648.00	  587.14	-1890.81	  444.98
     45.4700	  639.00	  587.36	-1900.02	  445.08
     45.5700	  627.00	  587.60	-1912.27	  445.17
     45.6700	  579.00	  587.88	-1960.54	  445.27
     45.7700	  563.00	  588.18	-1976.85	  445.37
     45.8700	  556.00	  588.60	-1984.27	  445.47
     45.9700	  603.00	  588.97	-1937.64	  445.57
     46.0700	  625.00	  589.38	-1916.04	  445.67
     46.1700	  602.00	  589.82	-1939.48	  445.77
     46.2700	  593.00	  590.30	-1948.96	  445.87
     46.3700	  565.00	  590.83	-1977.49	  445.97
     46.4700	  629.00	  591.22	-1913.88	  446.07
     46.5700	  582.00	  591.99	-1961.65	  446.17
     46.6700	  583.00	  592.70	-1961.37	  446.27
     46.7700	  574.00	  593.50	-1971.16	  446.37
     46.8700	  655.00	  594.39	-1891.06	  446.47
     46.9700	  598.00	  595.42	-1949.08	  446.57
     47.0700	  616.00	  596.62	-1932.28	  446.67
     47.1700	  627.00	  598.08	-1922.74	  446.77
     47.2700	  576.00	  599.94	-1975.60	  446.88
     47.3700	  597.00	  602.46	-1957.12	  446.98
     47.4700	  671.00	  606.05	-1886.72	  447.08
     47.5700	  593.00	  611.24	-1969.91	  447.18
     47.6700	  650.00	  618.71	-1920.38	  447.28
     47.7700	  611.00	  629.06	-1969.73	  447.38
     47.8700	  638.00	  642.53	-1956.19	  447.48
     47.9700	  645.00	  658.61	-1965.27	  447.58
     48.0700	  670.00	  675.62	-1957.28	  447.68
     48.1700	  667.00	  690.32	-1974.98	  447.78
     48.2700	  685.00	  698.48	-1965.15	  447.88
     48.3700	  702.00	  697.28	-1946.95	  447.98
     48.4700	  655.00	  687.94	-1984.61	  448.08
     48.5700	  689.00	  674.72	-1937.39	  448.18
     48.6700	  655.00	  662.07	-1958.74	  448.28
     48.7700	  619.00	  651.50	-1984.16	  448.38
     48.8700	  640.00	  644.38	-1956.04	  448.48
     48.9700	  640.00	  640.80	-1952.47	  448.58
     49.0700	  629.00	  640.40	-1963.07	  448.68
     49.1700	  637.00	  642.71	-1957.37	  448.77
     49.2700	  594.00	  647.39	-2005.06	  448.87
     49.3700	  622.00	  654.48	-1984.15	  448.97
     49.4700	  648.00	  664.59	-1968.26	  449.07
     49.5700	  671.00	  679.53	-1960.20	  449.17
     49.6700	  678.00	  703.55	-1977.21	  449.26
     49.7700	  758.00	  745.39	-1939.06	  449.36
     49.8700	  846.00	  820.85	-1926.52	  449.46
     49.9700	 1001.00	  953.80	-1904.46	  449.55
     50.0700	 1158.00	 1172.36	-1966.03	  449.65
     50.1700	 1604.00	 1497.62	-1845.28	  449.75
     50.2700	 2155.00	 1925.41	-1722.07	  449.84
     50.3700	 2475.00	 2407.22	-1883.89	  449.94
     50.4700	 2949.00	 2840.24	-1842.91	  450.03
     50.5700	 3009.00	 3083.26	-2025.93	  450.13
     50.6700	 2923.00	 3029.53	-2058.20	  450.22
     50.7700	 2624.00	 2702.07	-2029.73	  450.32
     50.8700	 2129.00	 2235.64	-2058.31	  450.41
     50.9700	 1620.00	 1767.03	-2098.70	  450.50
     51.0700	 1314.00	 1380.16	-2017.83	  450.59
     51.1700	 1024.00	 1104.10	-2031.77	  450.69
     51.2700	  959.00	  930.76	-1923.42	  450.78
     51.3700	  873.00	  833.09	-1911.75	  450.87
     51.4700	  826.00	  781.50	-1907.16	  450.96
     51.5700	  807.00	  753.00	-1897.67	  451.05
     51.6700	  738.00	  733.41	-1947.08	  451.14
     51.7700	  743.00	  716.57	-1925.24	  451.23
     51.8700	  701.00	  701.29	-1951.96	  451.32
     51.9700	  711.00	  688.06	-1928.72	  451.41
     52.0700	  709.00	  677.36	-1920.02	  451.50
     52.1700	  673.00	  669.24	-1947.91	  451.58
     52.2700	  701.00	  663.39	-1914.06	  451.67
     52.3700	  705.00	  659.31	-1905.97	  451.76
     52.4700	  678.00	  656.62	-1930.29	  451.84
     52.5700	  702.00	  655.30	-1904.97	  451.93
     52.6700	  674.00	  655.57	-1933.23	  452.01
     52.7700	  595.00	  657.86	-2014.52	  452.10
     52.8700	  667.00	  662.93	-1947.59	  452.18
     52.9700	  669.00	  672.06	-1954.72	  452.27
     53.0700	  673.00	  687.25	-1965.91	  452.35
     53.1700	  699.00	  711.30	-1963.96	  452.43
     53.2700	  758.00	  747.59	-1941.25	  452.51
     53.3700	  765.00	  799.41	-1986.07	  452.59
     53.4700	  864.00	  868.78	-1956.44	  452.67
     53.5700	  921.00	  954.89	-1985.55	  452.75
     53.6700	 1095.00	 1052.31	-1908.97	  452.83
     53.7700	 1172.00	 1148.97	-1928.64	  452.91
     53.8700	 1307.00	 1224.96	-1869.63	  452.99
     53.9700	 1356.00	 1257.60	-1853.26	  453.06
     54.0700	 1251.00	 1234.52	-1935.19	  453.14
     54.1700	 1221.00	 1164.46	-1895.12	  453.22
     54.2700	 1141.00	 1069.93	-1880.59	  453.29
     54.3700	  901.00	  972.13	-2022.80	  453.36
     54.4700	  891.00	  884.44	-1945.11	  453.44
     54.5700	  817.00	  813.16	-1947.82	  453.51
     54.6700	  784.00	  759.58	-1927.25	  453.58
     54.7700	  737.00	  721.99	-1936.65	  453.65
     54.8700	  709.00	  697.12	-1939.79	  453.72
     54.9700	  679.00	  681.49	-1954.15	  453.79
     55.0700	  646.00	  672.10	-1977.77	  453.86
     55.1700	  657.00	  666.79	-1961.45	  453.93
     55.2700	  678.00	  664.13	-1937.80	  454.00
     55.3700	  717.00	  663.33	-1897.99	  454.07
     55.4700	  642.00	  663.96	-1973.62	  454.13
     55.5700	  636.00	  665.84	-1981.51	  454.20
     55.6700	  678.00	  668.96	-1942.63	  454.26
     55.7700	  669.00	  673.42	-1956.08	  454.33
     55.8700	  655.00	  679.45	-1976.11	  454.39
     55.9700	  683.00	  687.53	-1956.20	  454.45
     56.0700	  665.00	  698.58	-1985.25	  454.51
     56.1700	  748.00	  714.36	-1918.03	  454.57
     56.2700	  710.00	  738.07	-1979.74	  454.63
     56.3700	  753.00	  775.19	-1973.86	  454.69
     56.4700	  815.00	  834.21	-1970.87	  454.75
     56.5700	  945.00	  926.63	-1933.30	  454.81
     56.6700	 1049.00	 1065.78	-1968.45	  454.87
     56.7700	 1331.00	 1263.16	-1883.82	  454.92
     56.8700	 1581.00	 1523.46	-1894.12	  454.98
     56.9700	 1947.00	 1838.17	-1842.84	  455.03
     57.0700	 2230.00	 2179.42	-1901.08	  455.08
     57.1700	 2618.00	 2495.35	-1829.02	  455.14
     57.2700	 2665.00	 2712.38	-1999.04	  455.19
     57.3700	 2709.00	 2761.09	-2003.76	  455.24
     57.4700	 2543.00	 2622.94	-2031.61	  455.29
     57.5700	 2282.00	 2347.28	-2016.95	  455.34
     57.6700	 1976.00	 2011.84	-1987.50	  455.38
     57.7700	 1624.00	 1681.24	-2008.90	  455.43
     57.8700	 1261.00	 1394.83	-2085.49	  455.48
     57.9700	 1059.00	 1169.96	-2062.62	  455.52
     58.0700	  927.00	 1008.02	-2032.69	  455.57
     58.1700	  852.00	  900.71	-2000.38	  455.61
     58.2700	  869.00	  836.38	-1919.04	  455.65
     58.3700	  827.00	  804.37	-1929.03	  455.69
     58.4700	  770.00	  797.51	-1979.17	  455.73
     58.5700	  817.00	  812.54	-1947.21	  455.77
     58.6700	  860.00	  848.64	-1940.31	  455.81
     58.7700	  881.00	  905.44	-1976.11	  455.85
     58.8700	  955.00	  980.90	-1977.56	  455.89
     58.9700	  967.00	 1069.45	-2054.11	  455.92
     59.0700	 1185.00	 1160.89	-1927.56	  455.96
     59.1700	 1186.00	 1241.91	-2007.58	  455.99
     59.2700	 1243.00	 1301.86	-2010.53	  456.02
     59.3700	 1367.00	 1337.53	-1922.19	  456.05
     59.4700	 1337.00	 1349.28	-1963.95	  456.09
     59.5700	 1304.00	 1336.57	-1984.24	  456.12
     59.6700	 1344.00	 1301.80	-1909.46	  456.14
     59.7700	 1307.00	 1255.70	-1900.37	  456.17
     59.8700	 1209.00	 1213.35	-1956.02	  456.20
     59.9700	 1234.00	 1187.15	-1904.81	  456.22
     60.0700	 1225.00	 1184.73	-1911.39	  456.25
     60.1700	 1235.00	 1210.99	-1927.65	  456.27
     60.2700	 1340.00	 1268.78	-1880.44	  456.30
     60.3700	 1474.00	 1356.08	-1833.74	  456.32
     60.4700	 1496.00	 1461.98	-1917.65	  456.34
     60.5700	 1598.00	 1564.80	-1918.46	  456.36
     60.6700	 1592.00	 1634.13	-1993.80	  456.38
     60.7700	 1526.00	 1640.67	-2066.34	  456.40
     60.8700	 1577.00	 1574.05	-1948.72	  456.41
     60.9700	 1394.00	 1450.67	-2008.33	  456.43
     61.0700	 1300.00	 1300.55	-1952.22	  456.44
     61.1700	 1117.00	 1150.88	-1985.55	  456.46
     61.2700	  948.00	 1019.97	-2023.64	  456.47
     61.3700	  887.00	  917.24	-1981.91	  456.48
     61.4700	  799.00	  845.25	-1997.92	  456.49
     61.5700	  758.00	  802.41	-1996.08	  456.50
     61.6700	  825.00	  785.90	-1912.57	  456.51
     61.7700	  814.00	  794.09	-1931.76	  456.52
     61.8700	  857.00	  827.65	-1922.31	  456.52
     61.9700	  918.00	  889.27	-1922.94	  456.53
     62.0700	 1015.00	  982.03	-1918.70	  456.53
     62.1700	 1153.00	 1106.76	-1905.43	  456.54
     62.2700	 1270.00	 1259.20	-1940.87	  456.54
     62.3700	 1474.00	 1427.44	-1905.11	  456.54
     62.4700	 1632.00	 1590.28	-1909.95	  456.54
     62.5700	 1697.00	 1717.31	-1971.97	  456.54
     62.6700	 1778.00	 1775.73	-1949.39	  456.54
     62.7700	 1752.00	 1746.74	-1946.40	  456.53
     62.8700	 1567.00	 1639.39	-2024.05	  456.53
     62.9700	 1392.00	 1483.54	-2043.21	  456.52
     63.0700	 1322.00	 1311.94	-1941.60	  456.52
     63.1700	 1083.00	 1149.27	-2017.94	  456.51
     63.2700	  960.00	 1010.43	-2002.09	  456.50
     63.3700	  850.00	  901.71	-2003.38	  456.49
     63.4700	  800.00	  822.86	-1974.53	  456.48
     63.5700	  726.00	  769.66	-1995.33	  456.47
     63.6700	  750.00	  736.23	-1937.89	  456.46
     63.7700	  719.00	  717.02	-1949.68	  456.44
     63.8700	  704.00	  707.82	-1955.48	  456.43
     63.9700	  717.00	  706.22	-1940.88	  456.41
     64.0700	  700.00	  711.43	-1963.10	  456.39
     64.1700	  745.00	  724.25	-1930.92	  456.37
     64.2700	  749.00	  746.18	-1948.85	  456.35
     64.3700	  808.00	  781.21	-1924.87	  456.33
     64.4700	  842.00	  832.15	-1941.82	  456.31
     64.5700	  905.00	  901.95	-1948.61	  456.29
     64.6700	  996.00	  991.99	-1947.65	  456.27
     64.7700	 1103.00	 1100.80	-1949.47	  456.24
     64.8700	 1202.00	 1222.66	-1972.32	  456.21
     64.9700	 1372.00	 1346.42	-1926.08	  456.19
     65.0700	 1417.00	 1455.92	-1990.58	  456.16
     65.1700	 1478.00	 1532.93	-2006.60	  456.13
     65.2700	 1552.00	 1562.48	-1962.14	  456.10
     65.3700	 1393.00	 1538.24	-2096.91	  456.07
     65.4700	 1423.00	 1465.51	-1994.17	  456.03
     65.5700	 1294.00	 1360.51	-2018.18	  456.00
     65.6700	 1188.00	 1242.49	-2006.15	  455.96
     65.7700	 1083.00	 1127.18	-1995.84	  455.93
     65.8700	  984.00	 1023.88	-1991.54	  455.89
     65.9700	  896.00	  937.15	-1992.82	  455.85
     66.0700	  819.00	  867.63	-2000.29	  455.81
     66.1700	  761.00	  814.03	-2004.70	  455.77
     66.2700	  783.00	  774.10	-1942.76	  455.73
     66.3700	  729.00	  745.23	-1967.90	  455.69
     66.4700	  699.00	  724.74	-1977.41	  455.64
     66.5700	  670.00	  710.55	-1992.21	  455.60
     66.6700	  659.00	  701.03	-1993.70	  455.55
     66.7700	  686.00	  695.15	-1960.82	  455.51
     66.8700	  668.00	  692.24	-1975.91	  455.46
     66.9700	  689.00	  691.98	-1954.64	  455.41
     67.0700	  670.00	  694.32	-1975.99	  455.36
     67.1700	  677.00	  699.62	-1974.29	  455.30
     67.2700	  727.00	  708.85	-1933.51	  455.25
     67.3700	  695.00	  723.63	-1980.29	  455.20
     67.4700	  734.00	  746.61	-1964.27	  455.14
     67.5700	  814.00	  782.06	-1919.73	  455.09
     67.6700	  892.00	  835.62	-1895.29	  455.03
     67.7700	  927.00	  914.13	-1938.79	  454.97
     67.8700	 1012.00	 1024.71	-1964.38	  454.91
     67.9700	 1197.00	 1173.24	-1927.90	  454.85
     68.0700	 1444.00	 1362.17	-1869.84	  454.79
     68.1700	 1583.00	 1588.28	-1956.95	  454.73
     68.2700	 1907.00	 1840.47	-1885.14	  454.66
     68.3700	 2063.00	 2098.19	-1986.85	  454.60
     68.4700	 2294.00	 2330.26	-1987.93	  454.53
     68.5700	 2439.00	 2497.26	-2009.93	  454.46
     68.6700	 2520.00	 2561.87	-1993.54	  454.40
     68.7700	 2475.00	 2507.10	-1983.77	  454.33
     68.8700	 2465.00	 2347.27	-1833.94	  454.26
     68.9700	 2154.00	 2118.77	-1916.43	  454.18
     69.0700	 1889.00	 1861.46	-1924.12	  454.11
     69.1700	 1612.00	 1607.44	-1947.10	  454.04
     69.2700	 1451.00	 1378.16	-1878.82	  453.96
     69.3700	 1208.00	 1185.36	-1929.03	  453.89
     69.4700	 1045.00	 1032.94	-1939.61	  453.81
     69.5700	  954.00	  918.79	-1916.46	  453.73
     69.6700	  909.00	  837.26	-1879.93	  453.65
     69.7700	  792.00	  781.20	-1940.87	  453.57
     69.8700	  807.00	  743.68	-1888.34	  453.49
     69.9700	  821.00	  718.88	-1849.54	  453.41
     70.0700	  734.00	  702.44	-1920.10	  453.32
     70.1700	  725.00	  691.36	-1918.02	  453.24
     70.2700	  701.00	  683.72	-1934.39	  453.15
     70.3700	  691.00	  678.39	-1939.06	  453.07
     70.4700	  711.00	  674.70	-1915.36	  452.98
     70.5700	  670.00	  672.30	-1953.97	  452.89
     70.6700	  684.00	  671.04	-1938.71	  452.80
     70.7700	  691.00	  670.88	-1931.54	  452.71
     70.8700	  704.00	  671.89	-1919.55	  452.62
     70.9700	  733.00	  674.11	-1892.78	  452.52
     71.0700	  683.00	  678.38	-1947.04	  452.43
     71.1700	  714.00	  685.26	-1922.93	  452.34
     71.2700	  687.00	  696.00	-1960.67	  452.24
     71.3700	  701.00	  712.48	-1963.15	  452.14
     71.4700	  785.00	  737.33	-1904.00	  452.04
     71.5700	  775.00	  774.02	-1950.68	  451.94
     71.6700	  856.00	  826.56	-1922.22	  451.84
     71.7700	  901.00	  899.17	-1949.84	  451.74
     71.8700	 1051.00	  995.42	-1896.09	  451.64
     71.9700	 1147.00	 1117.16	-1921.83	  451.54
     72.0700	 1329.00	 1263.40	-1886.07	  451.43
     72.1700	 1406.00	 1429.18	-1974.84	  451.33
     72.2700	 1479.00	 1604.58	-2077.24	  451.22
     72.3700	 1839.00	 1774.11	-1886.78	  451.11
     72.4700	 1938.00	 1916.74	-1930.41	  451.00
     72.5700	 1950.00	 2008.65	-2010.32	  450.89
     72.6700	 1922.00	 2030.59	-2060.25	  450.78
     72.7700	 1939.00	 1978.10	-1990.76	  450.67
     72.8700	 1815.00	 1861.72	-1998.39	  450.56
     72.9700	 1643.00	 1704.62	-2013.29	  450.44
     73.0700	 1494.00	 1530.02	-1987.68	  450.33
     73.1700	 1353.00	 1356.65	-1955.31	  450.21
     73.2700	 1123.00	 1197.56	-2026.23	  450.10
     73.3700	 1057.00	 1060.42	-1955.09	  449.98
     73.4700	  963.00	  948.36	-1937.03	  449.86
     73.5700	  842.00	  861.00	-1970.67	  449.74
     73.6700	  759.00	  795.65	-1988.31	  449.62
     73.7700	  762.00	  748.45	-1938.11	  449.50
     73.8700	  720.00	  715.28	-1946.95	  449.38
     73.9700	  771.00	  692.42	-1873.08	  449.25
     74.0700	  678.00	  676.30	-1949.96	  449.13
     74.1700	  638.00	  665.74	-1979.41	  449.01
     74.2700	  653.00	  658.71	-1957.38	  448.88
     74.3700	  701.00	  654.23	-1904.89	  448.75
     74.4700	  639.00	  651.70	-1964.36	  448.62
     74.5700	  665.00	  650.73	-1937.40	  448.49
     74.6700	  597.00	  651.05	-2005.72	  448.36
     74.7700	  660.00	  652.39	-1944.06	  448.23
     74.8700	  708.00	  654.44	-1898.10	  448.10
     74.9700	  692.00	  656.80	-1916.47	  447.97
     75.0700	  699.00	  658.94	-1911.60	  447.84
     75.1700	  720.00	  660.43	-1892.10	  447.70
     75.2700	  690.00	  660.77	-1922.43	  447.57
     75.3700	  741.00	  659.74	-1870.41	  447.43
     75.4700	  696.00	  657.58	-1913.24	  447.29
     75.5700	  712.00	  654.83	-1894.49	  447.15
     75.6700	  718.00	  652.23	-1885.89	  447.01
     75.7700	  687.00	  650.57	-1915.23	  446.87
     75.8700	  737.00	  650.66	-1865.33	  446.73
     75.9700	  703.00	  653.31	-1901.98	  446.59
     76.0700	  653.00	  659.60	-1958.26	  446.45
     76.1700	  686.00	  670.41	-1936.07	  446.31
     76.2700	  697.00	  686.67	-1941.34	  446.16
     76.3700	  698.00	  709.16	-1962.83	  446.02
     76.4700	  720.00	  738.29	-1969.96	  445.87
     76.5700	  781.00	  773.93	-1944.60	  445.72
     76.6700	  808.00	  815.20	-1958.87	  445.58
     76.7700	  833.00	  860.26	-1978.92	  445.43
     76.8700	  901.00	  906.18	-1956.84	  445.28
     76.9700	  948.00	  948.86	-1952.53	  445.13
     77.0700	 1018.00	  983.21	-1916.88	  444.98
     77.1700	  962.00	 1003.89	-1993.56	  444.82
     77.2700	 1014.00	 1006.97	-1944.64	  444.67
     77.3700	  917.00	  991.75	-2026.41	  444.52
     77.4700	  963.00	  961.07	-1949.73	  444.36
     77.5700	  877.00	  919.96	-1994.63	  444.21
     77.6700	  874.00	  873.73	-1951.39	  444.05
     77.7700	  800.00	  826.66	-1978.33	  443.90
     77.8700	  775.00	  782.46	-1959.13	  443.74
     77.9700	  726.00	  743.10	-1968.76	  443.58
     78.0700	  722.00	  709.71	-1939.38	  443.42
     78.1700	  656.00	  682.61	-1978.27	  443.26
     78.2700	  689.00	  661.45	-1924.12	  443.10
     78.3700	  665.00	  645.52	-1932.18	  442.94
     78.4700	  634.00	  633.88	-1951.54	  442.78
     78.5700	  614.00	  625.57	-1963.24	  442.62
     78.6700	  637.00	  619.75	-1934.42	  442.45
     78.7700	  656.00	  615.71	-1911.38	  442.29
     78.8700	  680.00	  612.87	-1884.54	  442.13
     78.9700	  651.00	  610.95	-1911.62	  441.96
     79.0700	  618.00	  609.66	-1943.32	  441.79
     79.1700	  666.00	  608.82	-1894.49	  441.63
     79.2700	  602.00	  608.37	-1958.03	  441.46
     79.3700	  616.00	  608.24	-1943.91	  441.29
     79.4700	  594.00	  608.45	-1966.11	  441.12
     79.5700	  647.00	  609.00	-1913.67	  440.95
     79.6700	  626.00	  609.95	-1935.62	  440.78
     79.7700	  611.00	  611.37	-1952.04	  440.61
     79.8700	  599.00	  613.39	-1966.06	  440.44
     79.9700	  606.00	  616.19	-1961.86	  440.27
     80.0700	  657.00	  620.05	-1914.72	  440.10
     80.1700	  624.00	  625.41	-1953.08	  439.92
     80.2700	  646.00	  632.89	-1938.55	  439.75
     80.3700	  668.00	  643.37	-1927.04	  439.57
     80.4700	  661.00	  657.79	-1948.45	  439.40
     80.5700	  730.00	  678.05	-1899.72	  439.22
     80.6700	  725.00	  705.56	-1932.23	  439.05
     80.7700	  736.00	  741.99	-1957.66	  438.87
     80.8700	  836.00	  788.82	-1904.49	  438.69
     80.9700	  902.00	  846.99	-1896.65	  438.51
     81.0700	 1004.00	  916.51	-1864.17	  438.33
     81.1700	  958.00	  996.06	-1989.73	  438.15
     81.2700	 1030.00	 1082.64	-2004.31	  437.97
     81.3700	 1190.00	 1171.42	-1933.09	  437.79
     81.4700	 1215.00	 1255.88	-1992.54	  437.61
     81.5700	 1316.00	 1328.50	-1964.16	  437.43
     81.6700	 1457.00	 1382.17	-1876.84	  437.25
     81.7700	 1376.00	 1411.96	-1987.63	  437.07
     81.8700	 1381.00	 1416.09	-1986.75	  436.88
     81.9700	 1303.00	 1395.62	-2044.28	  436.70
     82.0700	 1335.00	 1353.83	-1970.50	  436.51
     82.1700	 1343.00	 1295.72	-1904.39	  436.33
     82.2700	 1234.00	 1227.19	-1944.86	  436.14
     82.3700	 1148.00	 1153.95	-1957.61	  435.96
     82.4700	 1055.00	 1080.73	-1977.40	  435.77
     82.5700	 1030.00	 1011.12	-1932.79	  435.59
     82.6700	  945.00	  947.62	-1954.29	  435.40
     82.7700	  902.00	  891.62	-1941.29	  435.21
     82.8700	  791.00	  843.42	-2004.08	  435.02
     82.9700	  794.00	  802.45	-1960.12	  434.84
     83.0700	  687.00	  767.72	-2032.38	  434.65
     83.1700	  694.00	  738.22	-1995.88	  434.46
     83.2700	  650.00	  713.22	-2014.88	  434.27
     83.3700	  658.00	  692.24	-1985.91	  434.08
     83.4700	  632.00	  675.02	-1994.69	  433.89
     83.5700	  658.00	  661.37	-1955.04	  433.70
     83.6700	  639.00	  651.17	-1963.83	  433.51
     83.7700	  625.00	  644.27	-1970.93	  433.31
     83.8700	  620.00	  640.51	-1972.17	  433.12
     83.9700	  605.00	  639.62	-1986.29	  432.93
     84.0700	  590.00	  641.25	-2002.91	  432.74
     84.1700	  635.00	  644.89	-1961.56	  432.54
     84.2700	  624.00	  649.81	-1977.48	  432.35
     84.3700	  641.00	  655.50	-1966.17	  432.16
     84.4700	  693.00	  661.00	-1919.66	  431.96
     84.5700	  687.00	  665.28	-1929.95	  431.77
     84.6700	  672.00	  667.68	-1947.35	  431.57
     84.7700	  671.00	  667.49	-1948.16	  431.38
     84.8700	  617.00	  664.53	-1999.19	  431.18
     84.9700	  634.00	  659.09	-1976.75	  430.99
     85.0700	  673.00	  651.81	-1930.48	  430.79
     85.1700	  621.00	  643.48	-1974.15	  430.60
     85.2700	  643.00	  634.83	-1943.49	  430.40
     85.3700	  651.00	  626.47	-1927.14	  430.20
     85.4700	  603.00	  618.92	-1967.58	  430.01
     85.5700	  600.00	  612.51	-1964.18	  429.81
     85.6700	  625.00	  607.51	-1934.18	  429.61
     85.7700	  566.00	  604.04	-1989.70	  429.42
     85.8700	  601.00	  602.16	-1952.83	  429.22
     85.9700	  610.00	  601.90	-1943.57	  429.02
     86.0700	  593.00	  603.26	-1961.92	  428.82
     86.1700	  586.00	  606.20	-1971.86	  428.63
     86.2700	  622.00	  610.68	-1940.34	  428.43
     86.3700	  580.00	  616.62	-1988.29	  428.23
     86.4700	  617.00	  623.91	-1958.57	  428.03
     86.5700	  625.00	  632.35	-1959.02	  427.83
     86.6700	  615.00	  641.70	-1978.37	  427.63
     86.7700	  627.00	  651.62	-1976.29	  427.43
     86.8700	  670.00	  661.70	-1943.37	  427.24
     86.9700	  631.00	  671.47	-1992.14	  427.04
     87.0700	  626.00	  680.51	-2006.18	  426.84
     87.1700	  656.00	  688.53	-1984.20	  426.64
     87.2700	  665.00	  695.51	-1982.17	  426.44
     87.3700	  658.00	  701.72	-1995.38	  426.24
     87.4700	  683.00	  707.60	-1976.27	  426.04
     87.5700	  670.00	  713.57	-1995.23	  425.84
     87.6700	  711.00	  719.83	-1960.50	  425.64
     87.7700	  734.00	  726.36	-1944.02	  425.44
     87.8700	  727.00	  732.80	-1957.46	  425.24
     87.9700	  723.00	  738.53	-1967.19	  425.04
     88.0700	  726.00	  742.68	-1968.34	  424.84
     88.1700	  699.00	  744.30	-1996.96	  424.64
     88.2700	  733.00	  742.63	-1961.29	  424.44
     88.3700	  693.00	  737.35	-1996.02	  424.24
     88.4700	  685.00	  728.73	-1995.39	  424.04
     88.5700	  726.00	  717.46	-1943.12	  423.85
     88.6700	  729.00	  704.48	-1927.14	  423.65
     88.7700	  691.00	  690.75	-1951.41	  423.45
     88.8700	  704.00	  676.73	-1924.40	  423.25
     88.9700	  627.00	  664.04	-1988.70	  423.05
     89.0700	  671.00	  652.82	-1933.49	  422.85
     89.1700	  654.00	  643.52	-1941.18	  422.65
     89.2700	  634.00	  636.37	-1954.03	  422.45
     89.3700	  687.00	  631.43	-1896.10	  422.25
     89.4700	  607.00	  628.62	-1973.29	  422.05
     89.5700	  668.00	  627.68	-1911.35	  421.86
     89.6700	  724.00	  628.27	-1855.93	  421.66
     89.7700	  683.00	  629.91	-1898.57	  421.46
     89.8700	  653.00	  632.08	-1930.75	  421.26
     89.9700	  680.00	  634.21	-1905.88	  421.06
     90.0700	  696.00	  635.73	-1891.40	  420.87
     90.1700	  684.00	  636.16	-1903.82	  420.67
     90.2700	  705.00	  635.17	-1881.84	  420.47
     90.3700	  747.00	  632.71	-1837.37	  420.28
     90.4700	  651.00	  628.92	-1929.59	  420.08
     90.5700	  627.00	  624.14	-1948.81	  419.88
     90.6700	  599.00	  618.75	-1971.41	  419.69
     90.7700	  673.00	  613.11	-1891.78	  419.49
     90.8700	  615.00	  607.55	-1944.22	  419.29
     90.9700	  616.00	  602.33	-1937.99	  419.10
     91.0700	  633.00	  597.62	-1916.28	  418.90
     91.1700	  538.00	  593.54	-2007.20	  418.71
     91.2700	  587.00	  590.15	-1954.82	  418.52
     91.3700	  613.00	  587.46	-1926.13	  418.32
     91.4700	  597.00	  585.44	-1940.11	  418.13
     91.5700	  594.00	  584.04	-1941.71	  417.93
     91.6700	  611.00	  583.21	-1923.87	  417.74
     91.7700	  560.00	  582.89	-1974.56	  417.55
     91.8700	  594.00	  583.07	-1940.74	  417.36
     91.9700	  583.00	  583.74	-1952.41	  417.16
     92.0700	  573.00	  584.94	-1963.61	  416.97
     92.1700	  627.00	  586.75	-1911.42	  416.78
     92.2700	  586.00	  589.28	-1954.94	  416.59
     92.3700	  586.00	  592.68	-1958.35	  416.40
     92.4700	  570.00	  597.16	-1978.83	  416.21
     92.5700	  611.00	  602.94	-1943.60	  416.02
     92.6700	  600.00	  610.23	-1961.90	  415.83
     92.7700	  652.00	  619.27	-1918.93	  415.64
     92.8700	  641.00	  630.24	-1940.91	  415.46
     92.9700	  604.00	  643.28	-1990.95	  415.27
     93.0700	  633.00	  658.43	-1977.10	  415.08
     93.1700	  668.00	  675.64	-1959.31	  414.90
     93.2700	  653.00	  694.71	-1993.38	  414.71
     93.3700	  724.00	  715.30	-1942.97	  414.53
     93.4700	  693.00	  736.93	-1995.59	  414.34
     93.5700	  714.00	  758.94	-1996.60	  414.16
     93.6700	  774.00	  780.55	-1958.22	  413.97
     93.7700	  746.00	  800.93	-2006.60	  413.79
     93.8700	  779.00	  819.34	-1992.01	  413.61
     93.9700	  843.00	  835.32	-1943.99	  413.43
     94.0700	  839.00	  848.88	-1961.55	  413.24
     94.1700	  788.00	  860.46	-2024.12	  413.06
     94.2700	  852.00	  870.79	-1970.46	  412.88
     94.3700	  846.00	  880.39	-1986.06	  412.70
     94.4700	  887.00	  890.56	-1955.22	  412.53
     94.5700	  905.00	  901.46	-1948.12	  412.35
     94.6700	  964.00	  913.38	-1901.05	  412.17
     94.7700	  920.00	  926.53	-1958.19	  411.99
     94.8700	  977.00	  941.02	-1915.69	  411.82
     94.9700	  990.00	  956.94	-1918.61	  411.64
     95.0700	  962.00	  974.18	-1963.84	  411.47
     95.1700	 1004.00	  992.29	-1939.95	  411.29
     95.2700	  980.00	 1010.39	-1982.06	  411.12
     95.3700	 1020.00	 1027.14	-1958.80	  410.95
     95.4700	 1033.00	 1040.78	-1959.45	  410.78
     95.5700	  993.00	 1049.38	-2008.05	  410.61
     95.6700	 1033.00	 1051.16	-1969.83	  410.44
     95.7700	 1029.00	 1044.89	-1967.56	  410.27
     95.8700	 1010.00	 1030.26	-1971.93	  410.10
     95.9700	  965.00	 1008.02	-1994.69	  409.93
     96.0700	  970.00	  979.76	-1961.43	  409.77
     96.1700	  924.00	  947.61	-1975.28	  409.60
     96.2700	  916.00	  913.87	-1949.53	  409.44
     96.3700	  891.00	  880.82	-1941.48	  409.27
     96.4700	  881.00	  850.60	-1921.27	  409.11
     96.5700	  816.00	  825.12	-1960.78	  408.95
     96.6700	  851.00	  806.01	-1906.68	  408.79
     96.7700	  829.00	  794.66	-1917.33	  408.63
     96.8700	  806.00	  792.16	-1937.83	  408.47
     96.9700	  828.00	  799.37	-1923.03	  408.31
     97.0700	  845.00	  816.88	-1923.55	  408.15
     97.1700	  880.00	  845.06	-1916.73	  407.99
     97.2700	  955.00	  883.99	-1880.65	  407.84
     97.3700	  957.00	  933.43	-1928.10	  407.68
     97.4700	  983.00	  992.78	-1961.44	  407.53
     97.5700	 1028.00	 1060.96	-1984.63	  407.38
     97.6700	 1141.00	 1136.39	-1947.05	  407.23
     97.7700	 1200.00	 1216.89	-1968.55	  407.08
     97.8700	 1266.00	 1299.68	-1985.35	  406.93
     97.9700	 1362.00	 1381.33	-1971.00	  406.78
     98.0700	 1453.00	 1457.81	-1956.48	  406.63
     98.1700	 1572.00	 1524.65	-1904.32	  406.49
     98.2700	 1603.00	 1577.35	-1926.01	  406.34
     98.3700	 1541.00	 1611.89	-2022.56	  406.20
     98.4700	 1612.00	 1625.56	-1965.23	  406.05
     98.5700	 1598.00	 1617.58	-1971.25	  405.91
     98.6700	 1622.00	 1589.20	-1918.87	  405.77
     98.7700	 1484.00	 1543.41	-2011.07	  405.63
     98.8700	 1468.00	 1484.19	-1967.86	  405.49
     98.9700	 1370.00	 1415.95	-1997.62	  405.36
     99.0700	 1308.00	 1342.99	-1986.66	  405.22
     99.1700	 1248.00	 1269.28	-1972.95	  405.09
     99.2700	 1198.00	 1198.29	-1951.95	  404.95
     99.3700	 1135.00	 1132.97	-1949.63	  404.82
     99.4700	 1062.00	 1075.78	-1965.44	  404.69
     99.5700	 1040.00	 1028.70	-1940.37	  404.56
     99.6700	 1051.00	  993.31	-1893.98	  404.43
     99.7700	 1011.00	  970.78	-1911.45	  404.31
     99.8700	  995.00	  961.96	-1918.62	  404.18
     99.9700	  966.00	  967.36	-1953.02	  404.06
    100.0700	 1040.00	  987.20	-1898.87	  403.93
    100.1700	  992.00	 1021.43	-1981.10	  403.81
    100.2700	 1161.00	 1069.66	-1860.33	  403.69
    100.3700	 1140.00	 1131.16	-1942.83	  403.57
    100.4700	 1229.00	 1204.83	-1927.50	  403.45
    100.5700	 1332.00	 1289.12	-1908.78	  403.34
    100.6700	 1480.00	 1382.01	-1853.68	  403.22
    100.7700	 1470.00	 1480.98	-1962.65	  403.11
    100.8700	 1543.00	 1582.85	-1991.52	  403.00
    100.9700	 1683.00	 1684.26	-1952.92	  402.89
    101.0700	 1793.00	 1781.24	-1939.90	  402.78
    101.1700	 1827.00	 1869.99	-1994.66	  402.67
    101.2700	 1859.00	 1947.18	-2039.84	  402.56
    101.3700	 1945.00	 2010.22	-2016.89	  402.46
    101.4700	 2029.00	 2057.53	-1980.20	  402.36
    101.5700	 2080.00	 2088.31	-1959.98	  402.25
    101.6700	 2186.00	 2102.22	-1867.88	  402.15
    101.7700	 2141.00	 2099.11	-1909.78	  402.06
    101.8700	 2063.00	 2079.11	-1967.78	  401.96
    101.9700	 2015.00	 2042.84	-1979.51	  401.86
    102.0700	 2041.00	 1991.83	-1902.49	  401.77
    102.1700	 1964.00	 1928.63	-1916.29	  401.68
    102.2700	 1952.00	 1856.69	-1856.36	  401.58
    102.3700	 1792.00	 1779.99	-1939.66	  401.50
    102.4700	 1783.00	 1702.43	-1871.10	  401.41
    102.5700	 1710.00	 1627.46	-1869.13	  401.32
    102.6700	 1561.00	 1557.73	-1948.40	  401.24
    102.7700	 1544.00	 1495.06	-1902.73	  401.16
    102.8700	 1477.00	 1440.49	-1915.16	  401.07
    102.9700	 1362.00	 1394.24	-1983.90	  400.99
    103.0700	 1418.00	 1355.83	-1889.50	  400.92
    103.1700	 1323.00	 1324.16	-1952.83	  400.84
    103.2700	 1220.00	 1297.59	-2029.26	  400.77
    103.3700	 1272.00	 1274.15	-1953.82	  400.69
    103.4700	 1259.00	 1251.67	-1944.33	  400.62
    103.5700	 1213.00	 1228.08	-1966.74	  400.55
    103.6700	 1205.00	 1201.71	-1948.38	  400.49
    103.7700	 1182.00	 1171.53	-1941.20	  400.42
    103.8700	 1136.00	 1137.26	-1952.92	  400.36
    103.9700	 1072.00	 1099.25	-1978.92	  400.30
    104.0700	  990.00	 1058.34	-2020.00	  400.24
    104.1700	 1121.00	 1015.58	-1846.25	  400.18
    104.2700	  958.00	  972.12	-1965.79	  400.12
    104.3700	 1000.00	  929.01	-1880.68	  400.07
    104.4700	  913.00	  887.22	-1925.89	  400.02
    104.5700	  899.00	  847.54	-1900.21	  399.97
    104.6700	  830.00	  810.60	-1932.26	  399.92
    104.7700	  844.00	  776.86	-1884.52	  399.87
    104.8700	  788.00	  746.60	-1910.27	  399.83
    104.9700	  748.00	  719.95	-1923.62	  399.78
    105.0700	  765.00	  696.82	-1883.49	  399.74
    105.1700	  702.00	  677.21	-1926.87	  399.70
    105.2700	  687.00	  660.81	-1925.47	  399.67
    105.3700	  670.00	  647.33	-1929.00	  399.63
    105.4700	  638.00	  636.47	-1950.13	  399.60
    105.5700	  666.00	  627.88	-1913.54	  399.57
    105.6700	  620.00	  621.25	-1952.92	  399.54
    105.7700	  620.00	  616.26	-1947.92	  399.51
    105.8700	  630.00	  612.76	-1934.42	  399.49
    105.9700	  628.00	  610.50	-1934.17	  399.46
    106.0700	  612.00	  609.35	-1949.01	  399.44
    106.1700	  577.00	  609.19	-1983.86	  399.42
    106.2700	  619.00	  609.98	-1942.65	  399.41
    106.3700	  583.00	  611.69	-1980.36	  399.39
    106.4700	  606.00	  614.34	-1960.00	  399.38
    106.5700	  588.00	  617.95	-1981.62	  399.37
    106.6700	  623.00	  622.60	-1951.27	  399.36
    106.7700	  642.00	  628.34	-1938.01	  399.36
    106.8700	  645.00	  635.24	-1941.91	  399.36
    106.9700	  631.00	  643.35	-1964.02	  399.35
    107.0700	  611.00	  652.68	-1993.35	  399.36
    107.1700	  623.00	  663.23	-1991.90	  399.36
    107.2700	  665.00	  674.92	-1961.58	  399.36
    107.3700	  669.00	  687.61	-1970.28	  399.37
    107.4700	  668.00	  701.13	-1984.79	  399.38
    107.5700	  675.00	  715.19	-1991.86	  399.39
    107.6700	  781.00	  729.50	-1900.16	  399.41
    107.7700	  715.00	  743.66	-1980.32	  399.43
    107.8700	  726.00	  757.24	-1982.90	  399.45
    107.9700	  745.00	  769.77	-1976.44	  399.47
    108.0700	  731.00	  780.80	-2001.47	  399.49
    108.1700	  744.00	  789.90	-1997.57	  399.52
    108.2700	  730.00	  796.74	-2018.40	  399.55
    108.3700	  778.00	  801.22	-1974.89	  399.58
    108.4700	  793.00	  803.39	-1962.05	  399.61
    108.5700	  749.00	  803.48	-2006.15	  399.65
    108.6700	  777.00	  801.92	-1976.58	  399.69
    108.7700	  776.00	  799.20	-1974.86	  399.73
    108.8700	  726.00	  795.85	-2021.51	  399.77
    108.9700	  744.00	  792.34	-2000.01	  399.82
    109.0700	  783.00	  789.10	-1957.77	  399.86
    109.1700	  731.00	  786.43	-2007.10	  399.91
    109.2700	  706.00	  784.53	-2030.20	  399.97
    109.3700	  744.00	  783.50	-1991.16	  400.02
    109.4700	  780.00	  783.28	-1954.94	  400.08
    109.5700	  701.00	  783.73	-2034.39	  400.14
    109.6700	  725.00	  784.58	-2011.25	  400.21
    109.7700	  820.00	  785.48	-1917.15	  400.27
    109.8700	  789.00	  786.01	-1948.68	  400.34
    109.9700	  778.00	  785.74	-1959.41	  400.41
    110.0700	  799.00	  784.25	-1936.92	  400.49
    110.1700	  803.00	  781.22	-1929.89	  400.56
    110.2700	  739.00	  776.49	-1989.15	  400.64
    110.3700	  731.00	  770.02	-1990.68	  400.73
    110.4700	  732.00	  761.93	-1981.60	  400.81
    110.5700	  759.00	  752.48	-1945.14	  400.90
    110.6700	  721.00	  741.96	-1972.63	  400.99
    110.7700	  728.00	  730.72	-1954.39	  401.08
    110.8700	  772.00	  719.10	-1898.76	  401.18
    110.9700	  683.00	  707.41	-1976.08	  401.27
    111.0700	  667.00	  695.94	-1980.61	  401.38
    111.1700	  651.00	  684.94	-1985.60	  401.48
    111.2700	  644.00	  674.60	-1982.26	  401.59
    111.3700	  652.00	  665.08	-1964.75	  401.70
    111.4700	  614.00	  656.51	-1994.17	  401.81
    111.5700	  613.00	  648.95	-1987.62	  401.92
    111.6700	  638.00	  642.45	-1956.12	  402.04
    111.7700	  645.00	  637.02	-1943.68	  402.16
    111.8700	  616.00	  632.62	-1968.28	  402.28
    111.9700	  605.00	  629.20	-1975.86	  402.41
    112.0700	  624.00	  626.70	-1954.36	  402.54
    112.1700	  597.00	  625.03	-1979.69	  402.67
    112.2700	  624.00	  624.10	-1951.77	  402.81
    112.3700	  585.00	  623.82	-1990.48	  402.95
    112.4700	  633.00	  624.08	-1942.74	  403.09
    112.5700	  634.00	  624.80	-1942.46	  403.23
    112.6700	  638.00	  625.88	-1939.55	  403.38
    112.7700	  623.00	  627.25	-1955.92	  403.53
    112.8700	  610.00	  628.84	-1970.50	  403.68
    112.9700	  619.00	  630.58	-1963.25	  403.84
    113.0700	  623.00	  632.45	-1961.12	  404.00
    113.1700	  601.00	  634.42	-1985.09	  404.16
    113.2700	  560.00	  636.49	-2028.15	  404.33
    113.3700	  624.00	  638.66	-1966.32	  404.49
    113.4700	  626.00	  640.96	-1966.63	  404.67
    113.5700	  621.00	  643.44	-1974.11	  404.84
    113.6700	  603.00	  646.15	-1994.82	  405.02
    113.7700	  621.00	  649.16	-1979.82	  405.20
    113.8700	  657.00	  652.53	-1947.19	  405.38
    113.9700	  654.00	  656.38	-1954.04	  405.57
    114.0700	  643.00	  660.82	-1969.49	  405.76
    114.1700	  642.00	  666.01	-1975.67	  405.95
    114.2700	  625.00	  672.13	-1998.80	  406.15
    114.3700	  688.00	  679.44	-1943.11	  406.35
    114.4700	  721.00	  688.25	-1918.92	  406.55
    114.5700	  666.00	  698.98	-1984.65	  406.76
    114.6700	  685.00	  712.14	-1978.81	  406.97
    114.7700	  727.00	  728.40	-1953.06	  407.18
    114.8700	  829.00	  748.56	-1871.23	  407.40
    114.9700	  896.00	  773.65	-1829.31	  407.62
    115.0700	  801.00	  804.88	-1955.55	  407.84
    115.1700	  835.00	  843.72	-1960.38	  408.07
    115.2700	 1001.00	  891.87	-1842.54	  408.30
    115.3700	  985.00	  951.33	-1917.99	  408.53
    115.4700	 1097.00	 1024.30	-1878.97	  408.77
    115.5700	 1252.00	 1113.23	-1812.90	  409.01
    115.6700	 1350.00	 1220.72	-1822.39	  409.25
    115.7700	 1460.00	 1349.49	-1841.16	  409.50
    115.8700	 1634.00	 1502.28	-1819.94	  409.75
    115.9700	 1852.00	 1681.65	-1781.31	  410.00
    116.0700	 2157.00	 1889.91	-1684.57	  410.26
    116.1700	 2347.00	 2128.88	-1733.54	  410.52
    116.2700	 2673.00	 2399.81	-1678.47	  410.78
    116.3700	 2987.00	 2703.15	-1667.82	  411.05
    116.4700	 3204.00	 3038.28	-1785.94	  411.32
    116.5700	 3579.00	 3403.42	-1776.09	  411.59
    116.6700	 3851.00	 3795.49	-1896.15	  411.87
    116.7700	 4261.00	 4210.10	-1900.77	  412.15
    116.8700	 4626.00	 4641.48	-1967.14	  412.44
    116.9700	 5125.00	 5082.36	-1909.02	  412.73
    117.0700	 5371.00	 5524.16	-2104.82	  413.02
    117.1700	 5798.00	 5957.02	-2110.69	  413.32
    117.2700	 6365.00	 6370.25	-1956.92	  413.62
    117.3700	 6639.00	 6752.39	-2065.05	  413.92
    117.4700	 6887.00	 7091.53	-2156.20	  414.23
    117.5700	 7142.00	 7376.11	-2185.78	  414.54
    117.6700	 7380.00	 7595.50	-2167.17	  414.85
    117.7700	 7456.00	 7741.02	-2236.68	  415.17
    117.8700	 7499.00	 7806.66	-2259.33	  415.49
    117.9700	 7541.00	 7789.84	-2200.50	  415.81
    118.0700	 7508.00	 7691.72	-2135.39	  416.14
    118.1700	 7300.00	 7517.12	-2168.79	  416.48
    118.2700	 6964.00	 7273.80	-2261.46	  416.81
    118.3700	 6707.00	 6971.63	-2216.29	  417.15
    118.4700	 6583.00	 6621.85	-1990.52	  417.50
    118.5700	 5980.00	 6236.12	-2207.79	  417.84
    118.6700	 5720.00	 5826.06	-2057.73	  418.20
    118.7700	 5306.00	 5402.49	-2048.16	  418.55
    118.8700	 4931.00	 4975.31	-1995.98	  418.91
    118.9700	 4774.00	 4553.39	-1731.06	  419.27
    119.0700	 4369.00	 4144.24	-1726.90	  419.64
    119.1700	 3982.00	 3754.01	-1723.68	  420.01
    119.2700	 3785.00	 3387.37	-1554.03	  420.39
    119.3700	 3304.00	 3047.58	-1695.25	  420.76
    119.4700	 3000.00	 2736.78	-1688.45	  421.15
    119.5700	 2713.00	 2455.90	-1694.56	  421.53
    119.6700	 2409.00	 2204.91	-1747.57	  421.92
    119.7700	 2169.00	 1982.93	-1765.59	  422.32
    119.8700	 2034.00	 1788.46	-1706.13	  422.72
    119.9700	 1768.00	 1619.62	-1803.29	  423.12
    120.0700	 1718.00	 1474.20	-1707.87	  423.53
    120.1700	 1559.00	 1349.84	-1742.51	  423.94
    120.2700	 1391.00	 1244.10	-1804.77	  424.35
    120.3700	 1307.00	 1154.62	-1799.28	  424.77
    120.4700	 1160.00	 1079.17	-1870.84	  425.19
    120.5700	 1153.00	 1015.71	-1814.37	  425.62
    120.6700	 1037.00	  962.39	-1877.06	  426.05
    120.7700	  989.00	  917.60	-1880.27	  426.48
    120.8700	  913.00	  879.94	-1918.60	  426.92
    120.9700	  897.00	  848.23	-1902.89	  427.37
    121.0700	  884.00	  821.50	-1889.16	  427.81
    121.1700	  793.00	  798.93	-1957.60	  428.27
    121.2700	  817.00	  779.87	-1914.54	  428.72
    121.3700	  775.00	  763.79	-1940.46	  429.18
    121.4700	  794.00	  750.26	-1907.93	  429.64
    121.5700	  780.00	  738.94	-1910.61	  430.11
    121.6700	  710.00	  729.56	-1971.23	  430.59
    121.7700	  696.00	  721.91	-1977.57	  431.06
    121.8700	  710.00	  715.80	-1957.46	  431.54
    121.9700	  688.00	  711.10	-1974.76	  432.03
    122.0700	  671.00	  707.69	-1988.35	  432.52
    122.1700	  634.00	  705.48	-2023.15	  433.01
    122.2700	  662.00	  704.39	-1994.06	  433.51
    122.3700	  678.00	  704.36	-1978.03	  434.01
    122.4700	  693.00	  705.32	-1963.99	  434.52
    122.5700	  669.00	  707.22	-1989.88	  435.03
    122.6700	  713.00	  710.00	-1948.66	  435.55
    122.7700	  685.00	  713.60	-1980.26	  436.07
    122.8700	  664.00	  717.96	-2005.63	  436.59
    122.9700	  635.00	  723.03	-2039.69	  437.12
    123.0700	  720.00	  728.71	-1960.38	  437.65
    123.1700	  713.00	  734.94	-1973.61	  438.19
    123.2700	  723.00	  741.63	-1970.30	  438.73
    123.3700	  699.00	  748.68	-2001.35	  439.28
    123.4700	  716.00	  755.98	-1991.65	  439.83
    123.5700	  761.00	  763.42	-1954.09	  440.38
    123.6700	  775.00	  770.88	-1947.55	  440.94
    123.7700	  758.00	  778.25	-1971.91	  441.51
    123.8700	  734.00	  785.39	-2003.05	  442.08
    123.9700	  755.00	  792.19	-1988.85	  442.65
    124.0700	  778.00	  798.54	-1972.21	  443.23
    124.1700	  734.00	  804.36	-2022.03	  443.81
    124.2700	  778.00	  809.59	-1983.26	  444.40
    124.3700	  789.00	  814.19	-1976.86	  444.99
    124.4700	  811.00	  818.13	-1958.80	  445.59
    124.5700	  781.00	  821.49	-1992.16	  446.19
    124.6700	  776.00	  824.29	-1999.95	  446.79
    124.7700	  805.00	  826.57	-1973.24	  447.40
    124.8700	  851.00	  828.41	-1929.07	  448.02
    124.9700	  758.00	  581.76	-1775.42	  448.64
    125.0700	  803.00	  582.38	-1951.67	  449.26
    125.1700	  773.00	  583.01	-1951.67	  449.89
    125.2700	  787.00	  583.64	-1951.67	  450.53
    125.3700	  743.00	  584.28	-1951.67	  451.16
    125.4700	  729.00	  584.93	-1951.67	  451.81
    125.5700	  775.00	  585.57	-1951.67	  452.46
    125.6700	  762.00	  586.23	-1951.67	  453.11
    125.7700	  752.00	  586.88	-1951.67	  453.77
    125.8700	  745.00	  587.55	-1951.67	  454.43
    125.9700	  765.00	  588.21	-1951.67	  455.10
    126.0700	  775.00	  588.89	-1951.67	  455.77
    126.1700	  750.00	  589.56	-1951.67	  456.44
    126.2700	  752.00	  590.24	-1951.67	  457.13
    126.3700	  721.00	  590.93	-1951.67	  457.81
    126.4700	  756.00	  591.62	-1951.67	  458.50
    126.5700	  760.00	  592.32	-1951.67	  459.20
    126.6700	  762.00	  593.02	-1951.67	  459.90
    126.7700	  693.00	  593.73	-1951.67	  460.61
    126.8700	  725.00	  594.44	-1951.67	  461.32
    126.9700	  687.00	  595.15	-1951.67	  462.03
    127.0700	  738.00	  595.87	-1951.67	  462.76
    127.1700	  664.00	  596.60	-1951.67	  463.48
    127.2700	  655.00	  597.33	-1951.67	  464.21
    127.3700	  633.00	  598.07	-1951.67	  464.95
    127.4700	  658.00	  598.81	-1951.67	  465.69
    127.5700	  613.00	  599.55	-1951.67	  466.44
    127.6700	  641.00	  600.30	-1951.67	  467.19
    127.7700	  620.00	  601.06	-1951.67	  467.94
    127.8700	  651.00	  601.82	-1951.67	  468.70
    127.9700	  623.00	  602.59	-1951.67	  469.47
    128.0700	  662.00	  603.36	-1951.67	  470.24
    128.1700	  665.00	  604.14	-1951.67	  471.02
    128.2700	  621.00	  604.92	-1951.67	  471.80
    128.3700	  656.00	  605.70	-1951.67	  472.59
    128.4700	  688.00	  606.50	-1951.67	  473.38
    128.5700	    0.00	  607.29	-1951.67	  474.17
    128.6700	    0.00	  608.09	-1951.67	  474.98
     12.4304	        	        	        	        	       0	(  0  0  2)	  0  1
     12.4304	        	        	        	        	    -487	(  0  0  2)	  0  1
     25.1054	        	        	        	        	       0	(  0  0  4)	  0  1
     25.1054	        	        	        	        	    -487	(  0  0  4)	  0  1
     28.5525	        	        	        	        	       0	(  1  0  0)	  0  1
     28.5525	        	        	        	        	    -487	(  1  0  0)	  0  1
     29.2555	        	        	        	        	       0	(  1  0  1)	  0  1
     29.2555	        	        	        	        	    -487	(  1  0  1)	  0  1
     31.2781	        	        	        	        	       0	(  1  0  2)	  0  1
     31.2781	        	        	        	        	    -487	(  1  0  2)	  0  1
     34.4119	        	        	        	        	       0	(  1  0  3)	  0  1
     34.4119	        	        	        	        	    -487	(  1  0  3)	  0  1
     38.1034	        	        	        	        	       0	(  0  0  6)	  0  1
     38.1034	        	        	        	        	    -487	(  0  0  6)	  0  1
     38.4218	        	        	        	        	       0	(  1  0  4)	  0  1
     38.4218	        	        	        	        	    -487	(  1  0  4)	  0  1
     43.1108	        	        	        	        	       0	(  1  0  5)	  0  1
     43.1108	        	        	        	        	    -487	(  1  0  5)	  0  1
     48.3393	        	        	        	        	       0	(  1  0  6)	  0  1
     48.3393	        	        	        	        	    -487	(  1  0  6)	  0  1
     50.6485	        	        	        	        	       0	(  1  1  0)	  0  1
     50.6485	        	        	        	        	    -487	(  1  1  0)	  0  1
     51.6364	        	        	        	        	       0	(  0  0  8)	  0  1
     51.6364	        	        	        	        	    -487	(  0  0  8)	  0  1
     52.3875	        	        	        	        	       0	(  1  1  2)	  0  1
     52.3875	        	        	        	        	    -487	(  1  1  2)	  0  1
     54.0197	        	        	        	        	       0	(  1  0  7)	  0  1
     54.0197	        	        	        	        	    -487	(  1  0  7)	  0  1
     57.3821	        	        	        	        	       0	(  1  1  4)	  0  1
     57.3821	        	        	        	        	    -487	(  1  1  4)	  0  1
     59.2145	        	        	        	        	       0	(  2  0  0)	  0  1
     59.2145	        	        	        	        	    -487	(  2  0  0)	  0  1
     59.6099	        	        	        	        	       0	(  2  0  1)	  0  1
     59.6099	        	        	        	        	    -487	(  2  0  1)	  0  1
     60.1062	        	        	        	        	       0	(  1  0  8)	  0  1
     60.1062	        	        	        	        	    -487	(  1  0  8)	  0  1
     60.7869	        	        	        	        	       0	(  2  0  2)	  0  1
     60.7869	        	        	        	        	    -487	(  2  0  2)	  0  1
     62.7193	        	        	        	        	       0	(  2  0  3)	  0  1
     62.7193	        	        	        	        	    -487	(  2  0  3)	  0  1
     65.1528	        	        	        	        	       0	(  1  1  6)	  0  1
     65.1528	        	        	        	        	    -487	(  1  1  6)	  0  1
     65.3702	        	        	        	        	       0	(  2  0  4)	  0  1
     65.3702	        	        	        	        	    -487	(  2  0  4)	  0  1
     65.9982	        	        	        	        	       0	(  0  0 10)	  0  1
     65.9982	        	        	        	        	    -487	(  0  0 10)	  0  1
     66.5857	        	        	        	        	       0	(  1  0  9)	  0  1
     66.5857	        	        	        	        	    -487	(  1  0  9)	  0  1
     68.6990	        	        	        	        	       0	(  2  0  5)	  0  1
     68.6990	        	        	        	        	    -487	(  2  0  5)	  0  1
     72.6693	        	        	        	        	       0	(  2  0  6)	  0  1
     72.6693	        	        	        	        	    -487	(  2  0  6)	  0  1
     73.4741	        	        	        	        	       0	(  1  0 10)	  0  1
     73.4741	        	        	        	        	    -487	(  1  0 10)	  0  1
     75.2988	        	        	        	        	       0	(  1  1  8)	  0  1
     75.2988	        	        	        	        	    -487	(  1  1  8)	  0  1
     77.2552	        	        	        	        	       0	(  2  0  7)	  0  1
     77.2552	        	        	        	        	    -487	(  2  0  7)	  0  1
     80.8159	        	        	        	        	       0	(  1  0 11)	  0  1
     80.8159	        	        	        	        	    -487	(  1  0 11)	  0  1
     81.6501	        	        	        	        	       0	(  0  0 12)	  0  1
     81.6501	        	        	        	        	    -487	(  0  0 12)	  0  1
     81.6702	        	        	        	        	       0	(  2  1  0)	  0  1
     81.6702	        	        	        	        	    -487	(  2  1  0)	  0  1
     82.0144	        	        	        	        	       0	(  2  1  1)	  0  1
     82.0144	        	        	        	        	    -487	(  2  1  1)	  0  1
     82.4478	        	        	        	        	       0	(  2  0  8)	  0  1
     82.4478	        	        	        	        	    -487	(  2  0  8)	  0  1
     83.0452	        	        	        	        	       0	(  2  1  2)	  0  1
     83.0452	        	        	        	        	    -487	(  2  1  2)	  0  1
     84.7583	        	        	        	        	       0	(  2  1  3)	  0  1
     84.7583	        	        	        	        	    -487	(  2  1  3)	  0  1
     87.1493	        	        	        	        	       0	(  2  1  4)	  0  1
     87.1493	        	        	        	        	    -487	(  2  1  4)	  0  1
     87.7226	        	        	        	        	       0	(  1  1 10)	  0  1
     87.7226	        	        	        	        	    -487	(  1  1 10)	  0  1
     88.2612	        	        	        	        	       0	(  2  0  9)	  0  1
     88.2612	        	        	        	        	    -487	(  2  0  9)	  0  1
     88.6909	        	        	        	        	       0	(  1  0 12)	  0  1
     88.6909	        	        	        	        	    -487	(  1  0 12)	  0  1
     90.2170	        	        	        	        	       0	(  2  1  5)	  0  1
     90.2170	        	        	        	        	    -487	(  2  1  5)	  0  1
     93.9686	        	        	        	        	       0	(  2  1  6)	  0  1
     93.9686	        	        	        	        	    -487	(  2  1  6)	  0  1
     94.7412	        	        	        	        	       0	(  2  0 10)	  0  1
     94.7412	        	        	        	        	    -487	(  2  0 10)	  0  1
     95.7333	        	        	        	        	       0	(  3  0  0)	  0  1
     95.7333	        	        	        	        	    -487	(  3  0  0)	  0  1
     96.0759	        	        	        	        	       0	(  3  0  1)	  0  1
     96.0759	        	        	        	        	    -487	(  3  0  1)	  0  1
     97.1051	        	        	        	        	       0	(  3  0  2)	  0  1
     97.1051	        	        	        	        	    -487	(  3  0  2)	  0  1
     97.2293	        	        	        	        	       0	(  1  0 13)	  0  1
     97.2293	        	        	        	        	    -487	(  1  0 13)	  0  1
     98.4261	        	        	        	        	       0	(  2  1  7)	  0  1
     98.4261	        	        	        	        	    -487	(  2  1  7)	  0  1
     98.8258	        	        	        	        	       0	(  3  0  3)	  0  1
     98.8258	        	        	        	        	    -487	(  3  0  3)	  0  1
     99.4409	        	        	        	        	       0	(  0  0 14)	  0  1
     99.4409	        	        	        	        	    -487	(  0  0 14)	  0  1
    101.2489	        	        	        	        	       0	(  3  0  4)	  0  1
    101.2489	        	        	        	        	    -487	(  3  0  4)	  0  1
    101.9800	        	        	        	        	       0	(  2  0 11)	  0  1
    101.9800	        	        	        	        	    -487	(  2  0 11)	  0  1
    102.8247	        	        	        	        	       0	(  1  1 12)	  0  1
    102.8247	        	        	        	        	    -487	(  1  1 12)	  0  1
    103.6368	        	        	        	        	       0	(  2  1  8)	  0  1
    103.6368	        	        	        	        	    -487	(  2  1  8)	  0  1
    104.3956	        	        	        	        	       0	(  3  0  5)	  0  1
    104.3956	        	        	        	        	    -487	(  3  0  5)	  0  1
    106.6464	        	        	        	        	       0	(  1  0 14)	  0  1
    106.6464	        	        	        	        	    -487	(  1  0 14)	  0  1
    108.3042	        	        	        	        	       0	(  3  0  6)	  0  1
    108.3042	        	        	        	        	    -487	(  3  0  6)	  0  1
    109.6890	        	        	        	        	       0	(  2  1  9)	  0  1
    109.6890	        	        	        	        	    -487	(  2  1  9)	  0  1
    110.1461	        	        	        	        	       0	(  2  0 12)	  0  1
    110.1461	        	        	        	        	    -487	(  2  0 12)	  0  1
    113.0429	        	        	        	        	       0	(  3  0  7)	  0  1
    113.0429	        	        	        	        	    -487	(  3  0  7)	  0  1
    116.7427	        	        	        	        	       0	(  2  1 10)	  0  1
    116.7427	        	        	        	        	    -487	(  2  1 10)	  0  1
    117.3251	        	        	        	        	       0	(  1  0 15)	  0  1
    117.3251	        	        	        	        	    -487	(  1  0 15)	  0  1
    117.8552	        	        	        	        	       0	(  2  2  0)	  0  1
    117.8552	        	        	        	        	    -487	(  2  2  0)	  0  1
    118.7308	        	        	        	        	       0	(  3  0  8)	  0  1
    118.7308	        	        	        	        	    -487	(  3  0  8)	  0  1
    119.4095	        	        	        	        	       0	(  2  2  2)	  0  1
    119.4095	        	        	        	        	    -487	(  2  2  2)	  0  1
    119.5512	        	        	        	        	       0	(  2  0 13)	  0  1
    119.5512	        	        	        	        	    -487	(  2  0 13)	  0  1
    121.4036	        	        	        	        	       0	(  0  0 16)	  0  1
    121.4036	        	        	        	        	    -487	(  0  0 16)	  0  1
    122.1013	        	        	        	        	       0	(  1  1 14)	  0  1
    122.1013	        	        	        	        	    -487	(  1  1 14)	  0  1
    124.2277	        	        	        	        	       0	(  2  2  4)	  0  1
    124.2277	        	        	        	        	    -487	(  2  2  4)	  0  1
    125.0991	        	        	        	        	       0	(  2  1 11)	  0  1
    125.0991	        	        	        	        	    -487	(  2  1 11)	  0  1
    125.5840	        	        	        	        	       0	(  3  0  9)	  0  1
    125.5840	        	        	        	        	    -487	(  3  0  9)	  0  1
    126.1393	        	        	        	        	       0	(  3  1  0)	  0  1
    126.1393	        	        	        	        	    -487	(  3  1  0)	  0  1
    126.5629	        	        	        	        	       0	(  3  1  1)	  0  1
    126.5629	        	        	        	        	    -487	(  3  1  1)	  0  1
    127.8479	        	        	        	        	       0	(  3  1  2)	  0  1
    127.8479	        	        	        	        	    -487	(  3  1  2)	  0  1
    130.0414	        	        	        	        	       0	(  3  1  3)	  0  1
    130.0414	        	        	        	        	    -487	(  3  1  3)	  0  1
    130.0603	        	        	        	        	       0	(  1  0 16)	  0  1
    130.0603	        	        	        	        	    -487	(  1  0 16)	  0  1
    130.8402	        	        	        	        	       0	(  2  0 14)	  0  1
    130.8402	        	        	        	        	    -487	(  2  0 14)	  0  1
    132.9669	        	        	        	        	       0	(  2  2  6)	  0  1
    132.9669	        	        	        	        	    -487	(  2  2  6)	  0  1
    133.2379	        	        	        	        	       0	(  3  1  4)	  0  1
    133.2379	        	        	        	        	    -487	(  3  1  4)	  0  1
    134.0304	        	        	        	        	       0	(  3  0 10)	  0  1
    134.0304	        	        	        	        	    -487	(  3  0 10)	  0  1
    135.3945	        	        	        	        	       0	(  2  1 12)	  0  1
    135.3945	        	        	        	        	    -487	(  2  1 12)	  0  1
    137.6156	        	        	        	        	       0	(  3  1  5)	  0  1
    137.6156	        	        	        	        	    -487	(  3  1  5)	  0  1
    143.5315	        	        	        	        	       0	(  3  1  6)	  0  1
    143.5315	        	        	        	        	    -487	(  3  1  6)	  0  1
    145.1010	        	        	        	        	       0	(  3  0 11)	  0  1
    145.1010	        	        	        	        	    -487	(  3  0 11)	  0  1
    145.7638	        	        	        	        	       0	(  2  0 15)	  0  1
    145.7638	        	        	        	        	    -487	(  2  0 15)	  0  1
    147.1614	        	        	        	        	       0	(  1  0 17)	  0  1
    147.1614	        	        	        	        	    -487	(  1  0 17)	  0  1
    148.0398	        	        	        	        	       0	(  2  2  8)	  0  1
    148.0398	        	        	        	        	    -487	(  2  2  8)	  0  1
    149.4227	        	        	        	        	       0	(  2  1 13)	  0  1
    149.4227	        	        	        	        	    -487	(  2  1 13)	  0  1
    151.8471	        	        	        	        	       0	(  3  1  7)	  0  1
    151.8471	        	        	        	        	    -487	(  3  1  7)	  0  1
    152.7305	        	        	        	        	       0	(  1  1 16)	  0  1
    152.7305	        	        	        	        	    -487	(  1  1 16)	  0  1
    157.8536	        	        	        	        	       0	(  0  0 18)	  0  1
    157.8536	        	        	        	        	    -487	(  0  0 18)	  0  1
    163.2155	        	        	        	        	       0	(  3  0 12)	  0  1
    163.2155	        	        	        	        	    -487	(  3  0 12)	  0  1
    163.2851	        	        	        	        	       0	(  4  0  0)	  0  1
    163.2851	        	        	        	        	    -487	(  4  0  0)	  0  1
    164.5209	        	        	        	        	       0	(  4  0  1)	  0  1
    164.5209	        	        	        	        	    -487	(  4  0  1)	  0  1
    166.2329	        	        	        	        	       0	(  3  1  8)	  0  1
    166.2329	        	        	        	        	    -487	(  3  1  8)	  0  1
    169.0193	        	        	        	        	       0	(  4  0  2)	  0  1
    169.0193	        	        	        	        	    -487	(  4  0  2)	  0  1
