MSG Master    CELL:    5.87965   5.87965  23.09723   90.0000   90.0000  120.0000   SPGR: P 63/m m c             TEMP:    513.05
  2   1280     2.52000     0.00000    -0.08496     0.00000     0.00000    0
    96    96     0     0     2
       0.00000      10.00000
     125.00000     130.00000
 2Theta	Yobs	Ycal	Yobs-Ycal	Backg	Posr	(hkl)	K
      0.7700	    0.00	  947.24	-2077.25	  811.02
      0.8700	    0.00	  944.15	-2077.25	  807.93
      0.9700	   41.00	  941.08	-2077.25	  804.86
      1.0700	   60.00	  938.02	-2077.25	  801.80
      1.1700	   43.00	  934.99	-2077.25	  798.77
      1.2700	   55.00	  931.97	-2077.25	  795.75
      1.3700	   44.00	  928.98	-2077.25	  792.76
      1.4700	   89.00	  926.00	-2077.25	  789.78
      1.5700	  277.00	  923.04	-2077.25	  786.82
      1.6700	  448.00	  920.10	-2077.25	  783.88
      1.7700	  562.00	  917.17	-2077.25	  780.95
      1.8700	  638.00	  914.27	-2077.25	  778.05
      1.9700	  686.00	  911.38	-2077.25	  775.16
      2.0700	  790.00	  908.51	-2077.25	  772.29
      2.1700	  799.00	  905.66	-2077.25	  769.44
      2.2700	  762.00	  902.83	-2077.25	  766.61
      2.3700	  750.00	  900.02	-2077.25	  763.80
      2.4700	  716.00	  897.22	-2077.25	  761.00
      2.5700	  703.00	  894.44	-2077.25	  758.22
      2.6700	  683.00	  891.68	-2077.25	  755.46
      2.7700	  684.00	  888.94	-2077.25	  752.72
      2.8700	  623.00	  886.21	-2077.25	  749.99
      2.9700	  664.00	  883.50	-2077.25	  747.28
      3.0700	  599.00	  880.81	-2077.25	  744.59
      3.1700	  628.00	  878.13	-2077.25	  741.92
      3.2700	  759.00	  875.48	-2077.25	  739.26
      3.3700	  911.00	  872.84	-2077.25	  736.62
      3.4700	 1054.00	  870.22	-2077.25	  734.00
      3.5700	 1229.00	  867.61	-2077.25	  731.39
      3.6700	 1333.00	  865.02	-2077.25	  728.80
      3.7700	 1395.00	  862.45	-2077.25	  726.23
      3.8700	 1492.00	  859.89	-2077.25	  723.68
      3.9700	 1587.00	  857.36	-2077.25	  721.14
      4.0700	 1642.00	  854.83	-2077.25	  718.62
      4.1700	 1706.00	  852.33	-2077.25	  716.11
      4.2700	 1724.00	  849.84	-2077.25	  713.62
      4.3700	 1596.00	  847.37	-2077.25	  711.15
      4.4700	 1567.00	  844.91	-2077.25	  708.69
      4.5700	 1516.00	  842.47	-2077.25	  706.25
      4.6700	 1518.00	  840.05	-2077.25	  703.83
      4.7700	 1398.00	  837.64	-2077.25	  701.42
      4.8700	 1430.00	  835.25	-2077.25	  699.03
      4.9700	 1423.00	  832.88	-2077.25	  696.66
      5.0700	 1400.00	  830.52	-2077.25	  694.30
      5.1700	 1295.00	  828.18	-2077.25	  691.96
      5.2700	 1275.00	  825.85	-2077.25	  689.63
      5.3700	 1253.00	  823.54	-2077.25	  687.32
      5.4700	 1226.00	  821.24	-2077.25	  685.02
      5.5700	 1282.00	  818.96	-2077.25	  682.74
      5.6700	 1161.00	  816.70	-2077.25	  680.48
      5.7700	 1187.00	  814.45	-2077.25	  678.23
      5.8700	 1132.00	  812.22	-2077.25	  676.00
      5.9700	 1131.00	  810.00	-2077.25	  673.78
      6.0700	 1082.00	  807.79	-2077.25	  671.57
      6.1700	 1051.00	  805.61	-2077.25	  669.39
      6.2700	 1025.00	  803.43	-2077.25	  667.21
      6.3700	 1030.00	  801.28	-2077.25	  665.06
      6.4700	 1022.00	  799.13	-2077.25	  662.91
      6.5700	  967.00	  797.01	-2077.25	  660.79
      6.6700	  960.00	  794.89	-2077.25	  658.67
      6.7700	  960.00	  792.80	-2077.25	  656.58
      6.8700	  998.00	  790.71	-2077.25	  654.49
      6.9700	  911.00	  788.64	-2077.25	  652.42
      7.0700	  896.00	  786.59	-2077.25	  650.37
      7.1700	  918.00	  784.55	-2077.25	  648.33
      7.2700	  911.00	  782.52	-2077.25	  646.31
      7.3700	  892.00	  780.51	-2077.25	  644.30
      7.4700	  838.00	  778.52	-2077.25	  642.30
      7.5700	  849.00	  776.54	-2077.25	  640.32
      7.6700	  804.00	  774.57	-2077.25	  638.35
      7.7700	  801.00	  772.61	-2077.25	  636.40
      7.8700	  836.00	  770.68	-2077.25	  634.46
      7.9700	  824.00	  768.75	-2077.25	  632.53
      8.0700	  760.00	  766.84	-2077.25	  630.62
      8.1700	  825.00	  764.94	-2077.25	  628.72
      8.2700	  768.00	  763.06	-2077.25	  626.84
      8.3700	  791.00	  761.19	-2077.25	  624.97
      8.4700	  778.00	  759.33	-2077.25	  623.11
      8.5700	  798.00	  757.49	-2077.25	  621.27
      8.6700	  737.00	  755.66	-2077.25	  619.44
      8.7700	  786.00	  753.84	-2077.25	  617.62
      8.8700	  790.00	  752.04	-2077.25	  615.82
      8.9700	  801.00	  750.25	-2077.25	  614.03
      9.0700	  757.00	  748.48	-2077.25	  612.26
      9.1700	  755.00	  746.71	-2077.25	  610.50
      9.2700	  811.00	  744.97	-2077.25	  608.75
      9.3700	  776.00	  743.23	-2077.25	  607.01
      9.4700	  729.00	  741.51	-2077.25	  605.29
      9.5700	  701.00	  739.80	-2077.25	  603.58
      9.6700	  749.00	  738.10	-2077.25	  601.88
      9.7700	  703.00	  736.42	-2077.25	  600.20
      9.8700	  770.00	  734.75	-2077.25	  598.53
      9.9700	  721.00	  733.09	-2077.25	  596.87
     10.0700	  724.00	  733.55	-2086.80	  595.22
     10.1700	  742.00	  732.15	-2067.40	  593.59
     10.2700	  747.00	  730.80	-2061.05	  591.97
     10.3700	  766.00	  729.52	-2040.77	  590.36
     10.4700	  680.00	  728.34	-2125.59	  588.77
     10.5700	  741.00	  727.29	-2063.54	  587.18
     10.6700	  739.00	  726.44	-2064.69	  585.61
     10.7700	  742.00	  725.87	-2061.12	  584.05
     10.8700	  713.00	  725.66	-2089.91	  582.51
     10.9700	  734.00	  725.92	-2069.17	  580.97
     11.0700	  735.00	  726.68	-2068.93	  579.45
     11.1700	  742.00	  727.98	-2063.23	  577.94
     11.2700	  717.00	  729.83	-2090.08	  576.44
     11.3700	  737.00	  732.28	-2072.53	  574.96
     11.4700	  711.00	  735.41	-2101.66	  573.48
     11.5700	  685.00	  739.38	-2131.63	  572.02
     11.6700	  736.00	  744.39	-2085.64	  570.57
     11.7700	  736.00	  750.75	-2092.00	  569.13
     11.8700	  769.00	  758.75	-2067.00	  567.70
     11.9700	  838.00	  768.45	-2007.70	  566.29
     12.0700	  786.00	  779.35	-2070.60	  564.88
     12.1700	  834.00	  789.81	-2033.06	  563.49
     12.2700	  863.00	  796.50	-2010.75	  562.11
     12.3700	  872.00	  794.62	-1999.87	  560.74
     12.4700	  789.00	  781.35	-2069.60	  559.38
     12.5700	  747.00	  760.88	-2091.13	  558.03
     12.6700	  745.00	  740.63	-2072.88	  556.70
     12.7700	  722.00	  724.53	-2079.78	  555.37
     12.8700	  671.00	  712.97	-2119.22	  554.06
     12.9700	  728.00	  705.06	-2054.31	  552.76
     13.0700	  625.00	  699.64	-2151.89	  551.46
     13.1700	  645.00	  695.73	-2127.98	  550.18
     13.2700	  645.00	  692.69	-2124.94	  548.91
     13.3700	  625.00	  690.17	-2142.42	  547.65
     13.4700	  685.00	  687.97	-2080.22	  546.40
     13.5700	  679.00	  685.99	-2084.24	  545.17
     13.6700	  621.00	  684.17	-2140.42	  543.94
     13.7700	  670.00	  682.47	-2089.72	  542.72
     13.8700	  659.00	  680.87	-2099.12	  541.51
     13.9700	  709.00	  679.34	-2047.59	  540.32
     14.0700	  619.00	  677.88	-2136.13	  539.13
     14.1700	  674.00	  676.46	-2079.71	  537.96
     14.2700	  735.00	  675.10	-2017.35	  536.79
     14.3700	  701.00	  673.77	-2050.02	  535.64
     14.4700	  661.00	  672.47	-2088.72	  534.49
     14.5700	  673.00	  671.20	-2075.45	  533.36
     14.6700	  682.00	  669.96	-2065.21	  532.23
     14.7700	  633.00	  668.75	-2113.00	  531.12
     14.8700	  671.00	  667.55	-2073.80	  530.01
     14.9700	  687.00	  666.37	-2056.62	  528.92
     15.0700	  674.00	  665.22	-2068.47	  527.83
     15.1700	  612.00	  664.08	-2129.33	  526.76
     15.2700	  672.00	  662.95	-2068.20	  525.69
     15.3700	  677.00	  661.84	-2062.09	  524.64
     15.4700	  652.00	  660.75	-2086.00	  523.59
     15.5700	  665.00	  659.67	-2071.92	  522.56
     15.6700	  662.00	  658.60	-2073.85	  521.53
     15.7700	  688.00	  657.55	-2046.80	  520.51
     15.8700	  646.00	  656.51	-2087.76	  519.50
     15.9700	  672.00	  655.48	-2060.73	  518.51
     16.0700	  636.00	  654.46	-2095.71	  517.52
     16.1700	  621.00	  653.45	-2109.70	  516.54
     16.2700	  674.00	  652.46	-2055.71	  515.57
     16.3700	  639.00	  651.48	-2089.73	  514.60
     16.4700	  641.00	  650.50	-2086.75	  513.65
     16.5700	  674.00	  649.54	-2052.79	  512.71
     16.6700	  640.00	  648.59	-2085.84	  511.78
     16.7700	  641.00	  647.65	-2083.90	  510.85
     16.8700	  635.00	  646.72	-2088.97	  509.93
     16.9700	  662.00	  645.80	-2061.05	  509.03
     17.0700	  679.00	  644.88	-2043.13	  508.13
     17.1700	  637.00	  643.98	-2084.23	  507.24
     17.2700	  652.00	  643.09	-2068.34	  506.36
     17.3700	  659.00	  642.21	-2060.46	  505.48
     17.4700	  621.00	  641.33	-2097.58	  504.62
     17.5700	  607.00	  640.47	-2110.72	  503.77
     17.6700	  633.00	  639.62	-2083.87	  502.92
     17.7700	  611.00	  638.77	-2105.02	  502.08
     17.8700	  657.00	  637.93	-2058.18	  501.25
     17.9700	  645.00	  637.11	-2069.36	  500.43
     18.0700	  637.00	  636.29	-2076.54	  499.62
     18.1700	  654.00	  635.48	-2058.73	  498.81
     18.2700	  646.00	  634.68	-2065.93	  498.02
     18.3700	  634.00	  633.88	-2077.13	  497.23
     18.4700	  624.00	  633.10	-2086.35	  496.45
     18.5700	  686.00	  632.33	-2023.58	  495.67
     18.6700	  642.00	  631.56	-2066.81	  494.91
     18.7700	  695.00	  630.80	-2013.05	  494.15
     18.8700	  646.00	  630.05	-2061.30	  493.41
     18.9700	  601.00	  629.31	-2105.56	  492.67
     19.0700	  627.00	  628.58	-2078.83	  491.93
     19.1700	  651.00	  630.92	-2057.17	  491.21
     19.2700	  663.00	  630.27	-2044.52	  490.49
     19.3700	  617.00	  629.63	-2089.88	  489.78
     19.4700	  667.00	  629.00	-2039.25	  489.08
     19.5700	  599.00	  628.38	-2106.63	  488.39
     19.6700	  645.00	  627.77	-2060.02	  487.70
     19.7700	  617.00	  627.17	-2087.42	  487.02
     19.8700	  628.00	  626.58	-2075.83	  486.35
     19.9700	  630.00	  626.00	-2073.25	  485.69
     20.0700	  651.00	  625.44	-2051.69	  485.03
     20.1700	  592.00	  624.88	-2110.13	  484.38
     20.2700	  607.00	  624.40	-2094.65	  483.74
     20.3700	  583.00	  623.86	-2118.11	  483.11
     20.4700	  609.00	  623.34	-2091.59	  482.48
     20.5700	  630.00	  622.83	-2070.08	  481.86
     20.6700	  627.00	  622.33	-2072.58	  481.25
     20.7700	  609.00	  621.85	-2090.10	  480.64
     20.8700	  556.00	  621.37	-2142.62	  480.04
     20.9700	  614.00	  620.91	-2084.16	  479.45
     21.0700	  637.00	  620.46	-2060.71	  478.87
     21.1700	  637.00	  620.03	-2060.28	  478.29
     21.2700	  669.00	  619.60	-2027.85	  477.72
     21.3700	  638.00	  619.19	-2058.44	  477.15
     21.4700	  634.00	  618.80	-2062.05	  476.59
     21.5700	  628.00	  618.42	-2067.67	  476.04
     21.6700	  594.00	  618.06	-2101.31	  475.50
     21.7700	  644.00	  617.71	-2050.96	  474.96
     21.8700	  616.00	  617.37	-2078.62	  474.43
     21.9700	  654.00	  617.06	-2040.31	  473.91
     22.0700	  612.00	  616.76	-2082.01	  473.39
     22.1700	  638.00	  616.48	-2055.73	  472.88
     22.2700	  621.00	  616.22	-2072.47	  472.37
     22.3700	  679.00	  615.99	-2014.24	  471.87
     22.4700	  624.00	  615.97	-2069.22	  471.38
     22.5700	  608.00	  615.78	-2085.03	  470.90
     22.6700	  660.00	  615.62	-2032.87	  470.42
     22.7700	  597.00	  615.48	-2095.73	  469.94
     22.8700	  646.00	  615.38	-2046.63	  469.48
     22.9700	  641.00	  615.31	-2051.56	  469.01
     23.0700	  603.00	  615.27	-2089.52	  468.56
     23.1700	  616.00	  615.28	-2076.53	  468.11
     23.2700	  628.00	  615.34	-2064.59	  467.67
     23.3700	  609.00	  615.45	-2083.70	  467.23
     23.4700	  630.00	  615.62	-2062.87	  466.80
     23.5700	  662.00	  615.86	-2031.11	  466.37
     23.6700	  618.00	  616.20	-2075.45	  465.96
     23.7700	  645.00	  616.66	-2048.91	  465.54
     23.8700	  633.00	  617.28	-2061.53	  465.13
     23.9700	  660.00	  618.12	-2035.37	  464.73
     24.0700	  646.00	  619.29	-2050.54	  464.34
     24.1700	  638.00	  620.98	-2060.23	  463.95
     24.2700	  609.00	  623.45	-2091.70	  463.56
     24.3700	  653.00	  627.02	-2051.27	  463.18
     24.4700	  637.00	  632.23	-2072.48	  462.81
     24.5700	  704.00	  639.34	-2012.59	  462.44
     24.6700	  672.00	  648.38	-2053.63	  462.08
     24.7700	  720.00	  658.82	-2016.07	  461.72
     24.8700	  714.00	  669.23	-2032.48	  461.37
     24.9700	  739.00	  677.01	-2015.26	  461.02
     25.0700	  745.00	  678.72	-2010.97	  460.68
     25.1700	  719.00	  672.79	-2031.04	  460.34
     25.2700	  662.00	  662.30	-2077.55	  460.01
     25.3700	  665.00	  651.89	-2064.14	  459.68
     25.4700	  637.00	  644.02	-2084.27	  459.36
     25.5700	  599.00	  638.97	-2117.22	  459.05
     25.6700	  661.00	  636.36	-2052.61	  458.74
     25.7700	  665.00	  635.56	-2047.81	  458.43
     25.8700	  651.00	  635.99	-2062.24	  458.13
     25.9700	  622.00	  637.28	-2092.53	  457.83
     26.0700	  662.00	  639.23	-2054.48	  457.54
     26.1700	  702.00	  641.76	-2017.01	  457.26
     26.2700	  636.00	  644.87	-2086.12	  456.98
     26.3700	  620.00	  648.62	-2105.87	  456.70
     26.4700	  658.00	  653.06	-2072.31	  456.43
     26.5700	  694.00	  658.32	-2041.57	  456.16
     26.6700	  658.00	  664.55	-2083.80	  455.90
     26.7700	  666.00	  671.96	-2083.21	  455.64
     26.8700	  694.00	  680.81	-2064.06	  455.39
     26.9700	  688.00	  691.48	-2080.73	  455.14
     27.0700	  665.00	  704.46	-2116.71	  454.90
     27.1700	  649.00	  720.46	-2148.71	  454.66
     27.2700	  689.00	  740.49	-2128.74	  454.43
     27.3700	  694.00	  766.16	-2149.41	  454.20
     27.4700	  762.00	  800.45	-2115.70	  453.97
     27.5700	  755.00	  849.71	-2171.96	  453.75
     27.6700	  807.00	  928.09	-2198.34	  453.53
     27.7700	  849.00	 1064.87	-2293.12	  453.32
     27.8700	  995.00	 1313.37	-2395.62	  453.11
     27.9700	 1282.00	 1755.96	-2551.21	  452.91
     28.0700	 1923.00	 2492.73	-2646.98	  452.71
     28.1700	 3240.00	 3596.89	-2434.14	  452.51
     28.2700	 5278.00	 5022.46	-1821.71	  452.32
     28.3700	 7185.00	 6477.44	-1369.69	  452.13
     28.4700	 8309.00	 7375.54	-1143.79	  451.95
     28.5700	 7640.00	 7109.42	-1546.67	  451.77
     28.6700	 5851.00	 5845.64	-2071.89	  451.59
     28.7700	 4238.00	 4533.41	-2372.66	  451.42
     28.8700	 3570.00	 3815.54	-2322.79	  451.25
     28.9700	 3856.00	 3759.68	-1980.93	  451.09
     29.0700	 4288.00	 4070.46	-1859.71	  450.93
     29.1700	 4647.00	 4297.01	-1727.26	  450.77
     29.2700	 4095.00	 4041.62	-2023.87	  450.62
     29.3700	 3323.00	 3295.29	-2049.54	  450.47
     29.4700	 2312.00	 2434.15	-2199.40	  450.33
     29.5700	 1591.00	 1745.28	-2231.53	  450.19
     29.6700	 1203.00	 1298.52	-2172.77	  450.05
     29.7700	  992.00	 1046.70	-2131.95	  449.92
     29.8700	  888.00	  913.34	-2102.59	  449.79
     29.9700	  844.00	  839.73	-2072.98	  449.66
     30.0700	  866.00	  794.02	-2005.27	  449.54
     30.1700	  733.00	  762.30	-2106.55	  449.42
     30.2700	  757.00	  738.99	-2059.24	  449.30
     30.3700	  682.00	  721.84	-2117.09	  449.19
     30.4700	  730.00	  710.04	-2057.29	  449.08
     30.5700	  741.00	  703.87	-2040.12	  448.97
     30.6700	  713.00	  704.55	-2068.80	  448.87
     30.7700	  745.00	  713.81	-2046.06	  448.77
     30.8700	  743.00	  732.68	-2066.93	  448.68
     30.9700	  767.00	  759.47	-2069.72	  448.58
     31.0700	  785.00	  788.00	-2080.25	  448.49
     31.1700	  814.00	  806.86	-2070.11	  448.41
     31.2700	  812.00	  802.59	-2067.84	  448.33
     31.3700	  777.00	  772.31	-2072.56	  448.25
     31.4700	  755.00	  730.57	-2052.82	  448.17
     31.5700	  707.00	  692.73	-2062.98	  448.10
     31.6700	  666.00	  664.94	-2076.19	  448.02
     31.7700	  647.00	  647.01	-2077.26	  447.96
     31.8700	  672.00	  636.24	-2041.49	  447.89
     31.9700	  667.00	  629.76	-2040.01	  447.83
     32.0700	  638.00	  625.59	-2064.84	  447.77
     32.1700	  665.00	  622.65	-2034.90	  447.72
     32.2700	  681.00	  620.45	-2016.70	  447.66
     32.3700	  632.00	  618.78	-2064.03	  447.61
     32.4700	  643.00	  617.55	-2051.80	  447.57
     32.5700	  704.00	  616.70	-1989.95	  447.52
     32.6700	  615.00	  616.21	-2078.46	  447.48
     32.7700	  666.00	  616.08	-2027.33	  447.44
     32.8700	  685.00	  616.39	-2008.64	  447.40
     32.9700	  654.00	  617.11	-2040.36	  447.37
     33.0700	  655.00	  618.36	-2040.61	  447.34
     33.1700	  674.00	  620.29	-2023.54	  447.31
     33.2700	  678.00	  623.14	-2022.39	  447.28
     33.3700	  668.00	  627.41	-2036.66	  447.26
     33.4700	  612.00	  634.05	-2099.30	  447.24
     33.5700	  688.00	  644.93	-2034.18	  447.22
     33.6700	  667.00	  663.38	-2073.63	  447.21
     33.7700	  679.00	  694.59	-2092.84	  447.19
     33.8700	  715.00	  745.02	-2107.27	  447.18
     33.9700	  784.00	  819.76	-2113.01	  447.17
     34.0700	  955.00	  917.45	-2039.70	  447.17
     34.1700	 1095.00	 1024.67	-2006.92	  447.16
     34.2700	 1214.00	 1113.03	-1976.28	  447.16
     34.3700	 1243.00	 1143.90	-1978.15	  447.16
     34.4700	 1163.00	 1094.29	-2008.54	  447.16
     34.5700	 1018.00	  988.54	-2047.79	  447.17
     34.6700	  932.00	  873.93	-2019.18	  447.18
     34.7700	  791.00	  779.43	-2065.68	  447.19
     34.8700	  751.00	  712.96	-2039.21	  447.20
     34.9700	  714.00	  671.09	-2034.34	  447.21
     35.0700	  683.00	  646.46	-2040.71	  447.23
     35.1700	  693.00	  632.13	-2016.38	  447.25
     35.2700	  639.00	  623.36	-2061.61	  447.27
     35.3700	  612.00	  617.49	-2082.74	  447.29
     35.4700	  611.00	  613.24	-2079.49	  447.31
     35.5700	  637.00	  609.99	-2050.24	  447.34
     35.6700	  563.00	  607.43	-2121.68	  447.37
     35.7700	  640.00	  605.40	-2042.65	  447.40
     35.8700	  579.00	  603.75	-2102.00	  447.43
     35.9700	  571.00	  602.43	-2108.68	  447.46
     36.0700	  617.00	  601.35	-2061.60	  447.50
     36.1700	  583.00	  600.50	-2094.75	  447.53
     36.2700	  595.00	  599.82	-2082.07	  447.57
     36.3700	  609.00	  599.31	-2067.56	  447.61
     36.4700	  597.00	  598.95	-2079.20	  447.66
     36.5700	  581.00	  598.73	-2094.98	  447.70
     36.6700	  591.00	  598.66	-2084.91	  447.75
     36.7700	  616.00	  598.74	-2059.99	  447.79
     36.8700	  577.00	  598.99	-2099.24	  447.84
     36.9700	  622.00	  599.49	-2054.74	  447.89
     37.0700	  599.00	  600.38	-2078.63	  447.95
     37.1700	  587.00	  601.42	-2091.67	  448.00
     37.2700	  598.00	  603.44	-2082.69	  448.06
     37.3700	  609.00	  605.72	-2073.97	  448.11
     37.4700	  580.00	  609.21	-2106.46	  448.17
     37.5700	  583.00	  614.62	-2108.87	  448.23
     37.6700	  620.00	  623.17	-2080.42	  448.29
     37.7700	  639.00	  636.37	-2074.62	  448.36
     37.8700	  647.00	  655.82	-2086.07	  448.42
     37.9700	  692.00	  682.40	-2067.65	  448.49
     38.0700	  714.00	  713.22	-2076.47	  448.56
     38.1700	  739.00	  747.72	-2085.97	  448.62
     38.2700	  754.00	  776.10	-2099.35	  448.69
     38.3700	  766.00	  787.54	-2098.79	  448.77
     38.4700	  767.00	  774.54	-2084.79	  448.84
     38.5700	  704.00	  742.12	-2115.37	  448.91
     38.6700	  711.00	  703.73	-2069.98	  448.99
     38.7700	  636.00	  669.54	-2110.79	  449.06
     38.8700	  619.00	  643.51	-2101.76	  449.14
     38.9700	  613.00	  625.76	-2090.01	  449.22
     39.0700	  608.00	  614.57	-2083.82	  449.30
     39.1700	  609.00	  607.81	-2076.06	  449.38
     39.2700	  623.00	  603.70	-2057.95	  449.46
     39.3700	  595.00	  601.08	-2083.33	  449.55
     39.4700	  582.00	  598.19	-2093.44	  449.63
     39.5700	  623.00	  596.89	-2051.14	  449.71
     39.6700	  595.00	  595.90	-2078.15	  449.80
     39.7700	  573.00	  595.13	-2099.38	  449.89
     39.8700	  613.00	  594.54	-2058.79	  449.98
     39.9700	  618.00	  594.07	-2053.32	  450.07
     40.0700	  624.00	  593.71	-2046.96	  450.16
     40.1700	  569.00	  593.44	-2101.69	  450.25
     40.2700	  567.00	  593.23	-2103.48	  450.34
     40.3700	  557.00	  593.09	-2113.34	  450.43
     40.4700	  610.00	  593.00	-2060.25	  450.53
     40.5700	  548.00	  592.96	-2122.21	  450.62
     40.6700	  576.00	  592.96	-2094.21	  450.72
     40.7700	  589.00	  593.00	-2081.25	  450.81
     40.8700	  589.00	  593.61	-2081.86	  450.91
     40.9700	  559.00	  593.74	-2111.99	  451.01
     41.0700	  579.00	  593.91	-2092.16	  451.11
     41.1700	  605.00	  594.12	-2066.37	  451.21
     41.2700	  571.00	  594.38	-2100.63	  451.31
     41.3700	  589.00	  594.75	-2083.00	  451.41
     41.4700	  575.00	  595.12	-2097.37	  451.51
     41.5700	  573.00	  595.58	-2099.83	  451.61
     41.6700	  607.00	  596.12	-2066.37	  451.71
     41.7700	  609.00	  596.79	-2065.04	  451.82
     41.8700	  598.00	  597.61	-2076.86	  451.92
     41.9700	  596.00	  598.68	-2079.93	  452.02
     42.0700	  585.00	  600.14	-2092.39	  452.13
     42.1700	  592.00	  602.27	-2087.52	  452.24
     42.2700	  590.00	  605.53	-2092.78	  452.34
     42.3700	  582.00	  610.61	-2105.86	  452.45
     42.4700	  601.00	  618.59	-2094.84	  452.56
     42.5700	  618.00	  630.41	-2089.66	  452.66
     42.6700	  647.00	  646.63	-2076.88	  452.77
     42.7700	  629.00	  666.73	-2114.98	  452.88
     42.8700	  589.00	  688.24	-2176.49	  452.99
     42.9700	  687.00	  706.23	-2096.48	  453.10
     43.0700	  641.00	  714.24	-2150.49	  453.21
     43.1700	  751.00	  708.24	-2034.49	  453.32
     43.2700	  679.00	  690.95	-2089.20	  453.43
     43.3700	  640.00	  669.32	-2106.57	  453.54
     43.4700	  585.00	  648.99	-2141.24	  453.65
     43.5700	  618.00	  632.68	-2091.93	  453.76
     43.6700	  630.00	  620.90	-2068.15	  453.87
     43.7700	  575.00	  613.02	-2115.27	  453.99
     43.8700	  622.00	  608.09	-2063.34	  454.10
     43.9700	  557.00	  605.09	-2125.34	  454.21
     44.0700	  607.00	  603.45	-2073.70	  454.32
     44.1700	  588.00	  602.29	-2091.54	  454.44
     44.2700	  599.00	  601.52	-2079.77	  454.55
     44.3700	  606.00	  600.99	-2072.24	  454.66
     44.4700	  624.00	  600.63	-2053.88	  454.78
     44.5700	  650.00	  600.38	-2027.63	  454.89
     44.6700	  599.00	  600.22	-2078.47	  455.00
     44.7700	  620.00	  600.14	-2057.39	  455.12
     44.8700	  586.00	  600.12	-2091.37	  455.23
     44.9700	  619.00	  600.15	-2058.40	  455.35
     45.0700	  613.00	  600.24	-2064.49	  455.46
     45.1700	  639.00	  600.59	-2038.84	  455.57
     45.2700	  607.00	  600.75	-2071.00	  455.69
     45.3700	  573.00	  600.93	-2105.18	  455.80
     45.4700	  567.00	  601.14	-2111.39	  455.92
     45.5700	  610.00	  601.39	-2068.64	  456.03
     45.6700	  638.00	  601.66	-2040.91	  456.15
     45.7700	  624.00	  601.97	-2055.22	  456.26
     45.8700	  584.00	  602.39	-2095.64	  456.37
     45.9700	  638.00	  602.75	-2042.00	  456.49
     46.0700	  595.00	  603.15	-2085.40	  456.60
     46.1700	  635.00	  603.59	-2045.84	  456.72
     46.2700	  616.00	  604.07	-2065.32	  456.83
     46.3700	  611.00	  604.59	-2070.84	  456.94
     46.4700	  610.00	  604.97	-2072.22	  457.06
     46.5700	  629.00	  605.60	-2053.85	  457.17
     46.6700	  577.00	  606.44	-2106.69	  457.28
     46.7700	  600.00	  607.22	-2084.47	  457.40
     46.8700	  617.00	  608.10	-2068.35	  457.51
     46.9700	  623.00	  609.11	-2063.36	  457.62
     47.0700	  620.00	  610.28	-2067.53	  457.74
     47.1700	  645.00	  611.69	-2043.94	  457.85
     47.2700	  605.00	  613.49	-2085.74	  457.96
     47.3700	  617.00	  615.88	-2076.13	  458.07
     47.4700	  591.00	  619.25	-2105.50	  458.18
     47.5700	  617.00	  624.14	-2084.39	  458.29
     47.6700	  651.00	  631.21	-2057.46	  458.41
     47.7700	  646.00	  641.11	-2072.36	  458.52
     47.8700	  649.00	  654.21	-2082.46	  458.63
     47.9700	  710.00	  670.22	-2037.47	  458.74
     48.0700	  650.00	  687.76	-2115.01	  458.85
     48.1700	  703.00	  703.89	-2078.14	  458.96
     48.2700	  667.00	  714.37	-2124.62	  459.07
     48.3700	  688.00	  715.57	-2104.82	  459.17
     48.4700	  697.00	  707.58	-2087.83	  459.28
     48.5700	  655.00	  694.30	-2116.55	  459.39
     48.6700	  658.00	  680.60	-2099.85	  459.50
     48.7700	  664.00	  668.53	-2081.78	  459.60
     48.8700	  653.00	  659.82	-2084.07	  459.71
     48.9700	  625.00	  654.76	-2107.01	  459.82
     49.0700	  628.00	  653.04	-2102.29	  459.92
     49.1700	  674.00	  654.17	-2057.42	  460.03
     49.2700	  648.00	  657.75	-2087.00	  460.13
     49.3700	  617.00	  663.62	-2123.87	  460.24
     49.4700	  681.00	  672.15	-2068.40	  460.34
     49.5700	  674.00	  684.64	-2087.89	  460.44
     49.6700	  686.00	  704.42	-2095.67	  460.55
     49.7700	  733.00	  738.75	-2083.00	  460.65
     49.8700	  886.00	  801.66	-1992.91	  460.75
     49.9700	  893.00	  915.99	-2100.24	  460.85
     50.0700	 1145.00	 1111.46	-2043.71	  460.95
     50.1700	 1471.00	 1414.99	-2021.24	  461.05
     50.2700	 2052.00	 1832.09	-1857.34	  461.15
     50.3700	 2460.00	 2325.49	-1942.74	  461.25
     50.4700	 2874.00	 2800.60	-2003.85	  461.35
     50.5700	 3145.00	 3114.07	-2046.32	  461.45
     50.6700	 3082.00	 3135.14	-2130.39	  461.54
     50.7700	 2717.00	 2851.02	-2211.27	  461.64
     50.8700	 2340.00	 2385.25	-2122.50	  461.74
     50.9700	 1813.00	 1889.68	-2153.93	  461.83
     51.0700	 1301.00	 1467.07	-2243.32	  461.93
     51.1700	 1121.00	 1159.22	-2115.47	  462.02
     51.2700	  924.00	  963.65	-2116.90	  462.11
     51.3700	  805.00	  853.27	-2125.52	  462.20
     51.4700	  851.00	  796.06	-2022.31	  462.30
     51.5700	  800.00	  766.03	-2043.28	  462.39
     51.6700	  778.00	  746.87	-2046.12	  462.48
     51.7700	  755.00	  730.76	-2053.01	  462.57
     51.8700	  731.00	  715.75	-2062.00	  462.66
     51.9700	  730.00	  702.25	-2049.50	  462.74
     52.0700	  695.00	  690.96	-2073.21	  462.83
     52.1700	  679.00	  682.16	-2080.41	  462.92
     52.2700	  731.00	  675.72	-2021.97	  463.00
     52.3700	  683.00	  671.30	-2065.55	  463.09
     52.4700	  718.00	  668.55	-2027.80	  463.17
     52.5700	  701.00	  667.33	-2043.58	  463.26
     52.6700	  745.00	  667.70	-1999.95	  463.34
     52.7700	  708.00	  669.97	-2039.22	  463.42
     52.8700	  710.00	  674.76	-2042.01	  463.50
     52.9700	  674.00	  683.17	-2086.42	  463.58
     53.0700	  716.00	  697.00	-2058.25	  463.66
     53.1700	  744.00	  718.86	-2052.11	  463.74
     53.2700	  710.00	  752.01	-2119.26	  463.82
     53.3700	  860.00	  799.84	-2017.09	  463.89
     53.4700	  857.00	  864.83	-2085.08	  463.97
     53.5700	  938.00	  947.11	-2086.36	  464.05
     53.6700	 1113.00	 1042.74	-2006.99	  464.12
     53.7700	 1144.00	 1141.79	-2075.04	  464.19
     53.8700	 1280.00	 1226.40	-2023.65	  464.27
     53.9700	 1288.00	 1273.78	-2063.02	  464.34
     54.0700	 1318.00	 1266.97	-2026.22	  464.41
     54.1700	 1217.00	 1208.46	-2068.71	  464.48
     54.2700	 1110.00	 1118.32	-2085.57	  464.55
     54.3700	 1001.00	 1019.32	-2095.57	  464.61
     54.4700	  906.00	  927.19	-2098.44	  464.68
     54.5700	  826.00	  850.13	-2101.38	  464.75
     54.6700	  766.00	  790.73	-2101.98	  464.81
     54.7700	  735.00	  748.06	-2090.31	  464.88
     54.8700	  729.00	  719.21	-2067.46	  464.94
     54.9700	  680.00	  700.69	-2097.94	  465.00
     55.0700	  686.00	  689.34	-2080.59	  465.06
     55.1700	  682.00	  682.70	-2077.95	  465.12
     55.2700	  673.00	  679.14	-2083.39	  465.18
     55.3700	  637.00	  677.67	-2117.92	  465.24
     55.4700	  682.00	  677.75	-2073.00	  465.30
     55.5700	  669.00	  679.13	-2087.38	  465.35
     55.6700	  666.00	  681.75	-2093.00	  465.41
     55.7700	  664.00	  685.66	-2098.91	  465.46
     55.8700	  695.00	  691.05	-2073.30	  465.52
     55.9700	  677.00	  698.32	-2098.57	  465.57
     56.0700	  686.00	  708.20	-2099.45	  465.62
     56.1700	  701.00	  722.15	-2098.40	  465.67
     56.2700	  719.00	  742.87	-2101.12	  465.72
     56.3700	  826.00	  775.12	-2026.37	  465.77
     56.4700	  841.00	  826.49	-2062.74	  465.82
     56.5700	  884.00	  907.82	-2101.07	  465.86
     56.6700	 1043.00	 1032.30	-2066.55	  465.91
     56.7700	 1240.00	 1212.59	-2049.84	  465.95
     56.8700	 1407.00	 1456.12	-2126.37	  465.99
     56.9700	 1784.00	 1758.70	-2051.95	  466.03
     57.0700	 2178.00	 2098.30	-1997.55	  466.08
     57.1700	 2467.00	 2429.57	-2039.82	  466.12
     57.2700	 2746.00	 2683.22	-2014.47	  466.15
     57.3700	 2732.00	 2783.70	-2128.95	  466.19
     57.4700	 2645.00	 2694.04	-2126.29	  466.23
     57.5700	 2525.00	 2447.18	-1999.43	  466.26
     57.6700	 2010.00	 2118.89	-2186.14	  466.30
     57.7700	 1663.00	 1780.24	-2194.49	  466.33
     57.8700	 1367.00	 1477.83	-2188.08	  466.36
     57.9700	 1142.00	 1234.70	-2169.95	  466.39
     58.0700	 1049.00	 1055.85	-2084.10	  466.42
     58.1700	  933.00	  934.82	-2079.07	  466.45
     58.2700	  875.00	  860.08	-2062.33	  466.48
     58.3700	  778.00	  820.29	-2119.54	  466.51
     58.4700	  810.00	  807.38	-2074.63	  466.53
     58.5700	  814.00	  817.33	-2080.58	  466.55
     58.6700	  859.00	  849.04	-2067.29	  466.58
     58.7700	  872.00	  902.38	-2107.63	  466.60
     58.8700	  994.00	  975.96	-2059.21	  466.62
     58.9700	 1034.00	 1064.91	-2108.16	  466.64
     59.0700	 1132.00	 1159.59	-2104.84	  466.66
     59.1700	 1214.00	 1246.24	-2109.49	  466.67
     59.2700	 1286.00	 1312.16	-2103.41	  466.69
     59.3700	 1315.00	 1352.13	-2114.38	  466.71
     59.4700	 1386.00	 1366.98	-2058.23	  466.72
     59.5700	 1338.00	 1357.19	-2096.44	  466.73
     59.6700	 1302.00	 1324.28	-2099.53	  466.74
     59.7700	 1346.00	 1277.10	-2008.35	  466.75
     59.8700	 1264.00	 1230.47	-2043.72	  466.76
     59.9700	 1273.00	 1197.97	-2002.22	  466.77
     60.0700	 1176.00	 1188.39	-2089.64	  466.78
     60.1700	 1315.00	 1207.01	-1969.26	  466.78
     60.2700	 1365.00	 1257.22	-1969.47	  466.79
     60.3700	 1379.00	 1338.64	-2036.89	  466.79
     60.4700	 1559.00	 1442.94	-1961.19	  466.79
     60.5700	 1618.00	 1551.20	-2010.45	  466.79
     60.6700	 1677.00	 1634.50	-2034.75	  466.79
     60.7700	 1614.00	 1661.20	-2124.45	  466.79
     60.8700	 1606.00	 1613.79	-2085.04	  466.79
     60.9700	 1452.00	 1501.98	-2127.23	  466.78
     61.0700	 1225.00	 1354.40	-2206.65	  466.78
     61.1700	 1172.00	 1200.67	-2105.92	  466.77
     61.2700	  942.00	 1062.03	-2197.28	  466.77
     61.3700	  939.00	  950.41	-2088.66	  466.76
     61.4700	  835.00	  869.93	-2112.18	  466.75
     61.5700	  822.00	  819.60	-2074.85	  466.74
     61.6700	  792.00	  796.44	-2081.69	  466.72
     61.7700	  869.00	  798.14	-2006.39	  466.71
     61.8700	  815.00	  824.74	-2086.99	  466.70
     61.9700	  916.00	  878.69	-2039.94	  466.68
     62.0700	 1007.00	  963.48	-2033.73	  466.66
     62.1700	 1108.00	 1081.20	-2050.45	  466.64
     62.2700	 1323.00	 1229.44	-1983.69	  466.62
     62.3700	 1420.00	 1398.62	-2055.87	  466.60
     62.4700	 1577.00	 1569.85	-2070.10	  466.58
     62.5700	 1688.00	 1714.37	-2103.62	  466.56
     62.6700	 1789.00	 1797.91	-2086.16	  466.53
     62.7700	 1735.00	 1794.89	-2137.14	  466.51
     62.8700	 1723.00	 1705.92	-2060.17	  466.48
     62.9700	 1530.00	 1557.29	-2104.54	  466.45
     63.0700	 1340.00	 1383.47	-2120.72	  466.42
     63.1700	 1152.00	 1212.68	-2137.93	  466.39
     63.2700	 1050.00	 1063.12	-2090.37	  466.36
     63.3700	  924.00	  943.58	-2096.83	  466.33
     63.4700	  846.00	  855.40	-2086.65	  466.29
     63.5700	  835.00	  795.00	-2037.25	  466.26
     63.6700	  767.00	  756.54	-2066.79	  466.22
     63.7700	  686.00	  734.00	-2125.25	  466.18
     63.8700	  728.00	  722.59	-2071.84	  466.15
     63.9700	  710.00	  719.27	-2086.52	  466.11
     64.0700	  729.00	  722.89	-2071.14	  466.06
     64.1700	  741.00	  733.35	-2069.60	  466.02
     64.2700	  766.00	  753.41	-2064.66	  465.98
     64.3700	  795.00	  785.51	-2067.76	  465.93
     64.4700	  849.00	  833.18	-2061.43	  465.89
     64.5700	  912.00	  899.87	-2065.12	  465.84
     64.6700	 1022.00	  987.89	-2043.14	  465.79
     64.7700	 1091.00	 1096.98	-2083.23	  465.74
     64.8700	 1247.00	 1222.86	-2053.11	  465.69
     64.9700	 1406.00	 1355.79	-2027.04	  465.64
     65.0700	 1446.00	 1480.25	-2111.50	  465.58
     65.1700	 1555.00	 1576.96	-2099.21	  465.53
     65.2700	 1658.00	 1627.83	-2047.08	  465.47
     65.3700	 1610.00	 1621.89	-2089.14	  465.42
     65.4700	 1509.00	 1560.54	-2128.79	  465.36
     65.5700	 1349.00	 1457.57	-2185.82	  465.30
     65.6700	 1263.00	 1333.74	-2147.99	  465.24
     65.7700	 1140.00	 1207.89	-2145.14	  465.17
     65.8700	 1078.00	 1092.24	-2091.49	  465.11
     65.9700	  954.00	  993.48	-2116.73	  465.05
     66.0700	  904.00	  913.50	-2086.75	  464.98
     66.1700	  835.00	  851.44	-2093.69	  464.92
     66.2700	  786.00	  804.91	-2096.16	  464.85
     66.3700	  761.00	  771.03	-2087.28	  464.78
     66.4700	  749.00	  746.93	-2075.18	  464.71
     66.5700	  733.00	  730.09	-2074.34	  464.64
     66.6700	  681.00	  718.60	-2114.85	  464.56
     66.7700	  671.00	  711.16	-2117.41	  464.49
     66.8700	  650.00	  706.93	-2134.18	  464.41
     66.9700	  659.00	  705.48	-2123.73	  464.34
     67.0700	  644.00	  706.67	-2139.92	  464.26
     67.1700	  688.00	  710.68	-2099.93	  464.18
     67.2700	  708.00	  718.29	-2087.54	  464.10
     67.3700	  772.00	  730.72	-2035.97	  464.02
     67.4700	  782.00	  750.44	-2045.69	  463.94
     67.5700	  728.00	  781.29	-2130.54	  463.86
     67.6700	  868.00	  828.27	-2037.52	  463.77
     67.7700	  881.00	  898.08	-2094.33	  463.69
     67.8700	 1012.00	  998.04	-2063.29	  463.60
     67.9700	 1158.00	 1134.76	-2054.01	  463.51
     68.0700	 1356.00	 1312.26	-2033.51	  463.42
     68.1700	 1592.00	 1529.39	-2014.64	  463.33
     68.2700	 1850.00	 1777.78	-2005.03	  463.24
     68.3700	 2020.00	 2039.93	-2097.18	  463.15
     68.4700	 2274.00	 2287.68	-2090.93	  463.06
     68.5700	 2499.00	 2483.26	-2061.51	  462.96
     68.6700	 2517.00	 2586.25	-2146.50	  462.87
     68.7700	 2487.00	 2570.55	-2160.80	  462.77
     68.8700	 2480.00	 2440.28	-2037.53	  462.67
     68.9700	 2237.00	 2227.08	-2067.33	  462.57
     69.0700	 2048.00	 1971.88	-2001.13	  462.47
     69.1700	 1783.00	 1710.48	-2004.73	  462.37
     69.2700	 1467.00	 1468.27	-2078.52	  462.27
     69.3700	 1304.00	 1260.24	-2033.49	  462.16
     69.4700	 1123.00	 1092.78	-2047.03	  462.06
     69.5700	 1031.00	  965.35	-2011.60	  461.95
     69.6700	  939.00	  873.11	-2011.36	  461.85
     69.7700	  843.00	  809.08	-2043.33	  461.74
     69.8700	  862.00	  765.98	-1981.23	  461.63
     69.9700	  828.00	  737.48	-1986.73	  461.52
     70.0700	  796.00	  718.67	-1999.92	  461.41
     70.1700	  772.00	  706.08	-2011.33	  461.30
     70.2700	  747.00	  697.48	-2027.73	  461.18
     70.3700	  687.00	  691.48	-2081.73	  461.07
     70.4700	  698.00	  687.31	-2066.56	  460.95
     70.5700	  693.00	  684.52	-2068.77	  460.84
     70.6700	  698.00	  682.92	-2062.17	  460.72
     70.7700	  726.00	  682.40	-2033.65	  460.60
     70.8700	  689.00	  683.03	-2071.28	  460.48
     70.9700	  706.00	  684.97	-2056.22	  460.36
     71.0700	  706.00	  688.59	-2059.84	  460.24
     71.1700	  705.00	  694.35	-2066.60	  460.11
     71.2700	  750.00	  703.71	-2030.96	  459.99
     71.3700	  724.00	  718.14	-2071.39	  459.87
     71.4700	  795.00	  740.05	-2022.30	  459.74
     71.5700	  823.00	  772.67	-2026.92	  459.61
     71.6700	  807.00	  819.97	-2090.22	  459.48
     71.7700	  872.00	  886.27	-2091.52	  459.36
     71.8700	 1030.00	  975.54	-2022.79	  459.23
     71.9700	 1087.00	 1090.44	-2080.69	  459.09
     72.0700	 1283.00	 1231.15	-2025.40	  458.96
     72.1700	 1374.00	 1394.17	-2097.42	  458.83
     72.2700	 1496.00	 1571.24	-2152.49	  458.70
     72.3700	 1788.00	 1748.63	-2037.88	  458.56
     72.4700	 1833.00	 1906.72	-2150.97	  458.42
     72.5700	 2028.00	 2021.67	-2070.92	  458.29
     72.6700	 1981.00	 2071.00	-2167.25	  458.15
     72.7700	 1937.00	 2043.41	-2183.66	  458.01
     72.8700	 1860.00	 1945.27	-2162.52	  457.87
     72.9700	 1809.00	 1796.88	-2065.13	  457.73
     73.0700	 1585.00	 1622.53	-2114.78	  457.59
     73.1700	 1380.00	 1443.99	-2141.24	  457.45
     73.2700	 1246.00	 1275.29	-2106.54	  457.30
     73.3700	 1095.00	 1126.81	-2109.06	  457.16
     73.4700	 1036.00	 1003.28	-2044.53	  457.01
     73.5700	  889.00	  905.45	-2093.70	  456.87
     73.6700	  813.00	  831.25	-2095.50	  456.72
     73.7700	  791.00	  777.06	-2063.31	  456.57
     73.8700	  746.00	  738.67	-2069.92	  456.42
     73.9700	  692.00	  712.07	-2097.32	  456.27
     74.0700	  748.00	  693.38	-2022.63	  456.12
     74.1700	  705.00	  681.09	-2053.34	  455.97
     74.2700	  712.00	  672.89	-2038.14	  455.82
     74.3700	  666.00	  667.63	-2078.88	  455.66
     74.4700	  642.00	  664.59	-2099.84	  455.51
     74.5700	  672.00	  663.32	-2068.57	  455.35
     74.6700	  651.00	  663.51	-2089.76	  455.20
     74.7700	  650.00	  664.88	-2092.13	  455.04
     74.8700	  683.00	  667.13	-2061.38	  454.88
     74.9700	  713.00	  669.82	-2034.07	  454.72
     75.0700	  699.00	  672.57	-2050.82	  454.57
     75.1700	  668.00	  674.74	-2083.99	  454.41
     75.2700	  731.00	  675.77	-2022.02	  454.24
     75.3700	  711.00	  675.32	-2041.57	  454.08
     75.4700	  688.00	  673.43	-2062.68	  453.92
     75.5700	  734.00	  670.60	-2013.85	  453.76
     75.6700	  753.00	  667.58	-1991.83	  453.59
     75.7700	  720.00	  665.14	-2022.39	  453.43
     75.8700	  685.00	  664.32	-2056.57	  453.26
     75.9700	  667.00	  665.95	-2076.20	  453.09
     76.0700	  614.00	  671.03	-2134.28	  452.93
     76.1700	  671.00	  680.57	-2086.82	  452.76
     76.2700	  700.00	  695.61	-2072.86	  452.59
     76.3700	  724.00	  717.06	-2070.31	  452.42
     76.4700	  696.00	  745.54	-2126.79	  452.25
     76.5700	  793.00	  781.15	-2065.40	  452.08
     76.6700	  786.00	  823.27	-2114.52	  451.91
     76.7700	  864.00	  870.34	-2083.59	  451.74
     76.8700	  889.00	  919.70	-2107.95	  451.56
     76.9700	  909.00	  967.44	-2135.69	  451.39
     77.0700	 1012.00	 1008.44	-2073.69	  451.21
     77.1700	 1062.00	 1036.92	-2052.17	  451.04
     77.2700	  987.00	 1047.84	-2138.09	  450.86
     77.3700	 1057.00	 1038.93	-2059.18	  450.69
     77.4700	 1005.00	 1011.88	-2084.13	  450.51
     77.5700	  978.00	  971.41	-2070.66	  450.33
     77.6700	  965.00	  923.11	-2035.36	  450.15
     77.7700	  845.00	  872.59	-2104.84	  449.97
     77.8700	  863.00	  823.68	-2037.93	  449.79
     77.9700	  786.00	  779.19	-2070.44	  449.61
     78.0700	  712.00	  740.75	-2106.00	  449.43
     78.1700	  728.00	  709.02	-2058.27	  449.25
     78.2700	  674.00	  683.88	-2087.13	  449.07
     78.3700	  660.00	  664.67	-2081.92	  448.89
     78.4700	  679.00	  650.46	-2048.71	  448.70
     78.5700	  641.00	  640.23	-2076.48	  448.52
     78.6700	  636.00	  633.01	-2074.26	  448.33
     78.7700	  617.00	  627.98	-2088.23	  448.15
     78.8700	  621.00	  624.48	-2080.73	  447.96
     78.9700	  616.00	  622.01	-2083.26	  447.78
     79.0700	  632.00	  620.34	-2065.59	  447.59
     79.1700	  620.00	  619.23	-2076.48	  447.40
     79.2700	  639.00	  618.54	-2056.79	  447.21
     79.3700	  645.00	  618.22	-2050.47	  447.03
     79.4700	  603.00	  618.24	-2092.49	  446.84
     79.5700	  616.00	  618.62	-2079.87	  446.65
     79.6700	  633.00	  619.38	-2063.63	  446.46
     79.7700	  617.00	  620.60	-2080.85	  446.27
     79.8700	  611.00	  622.38	-2088.63	  446.08
     79.9700	  629.00	  624.88	-2073.13	  445.88
     80.0700	  595.00	  628.37	-2110.62	  445.69
     80.1700	  664.00	  633.22	-2046.47	  445.50
     80.2700	  631.00	  640.04	-2086.29	  445.31
     80.3700	  622.00	  649.69	-2104.94	  445.11
     80.4700	  734.00	  663.11	-2006.36	  444.92
     80.5700	  675.00	  682.28	-2084.53	  444.73
     80.6700	  733.00	  708.75	-2053.00	  444.53
     80.7700	  789.00	  744.44	-2032.69	  444.34
     80.8700	  923.00	  791.19	-1945.44	  444.14
     80.9700	  881.00	  850.37	-2046.62	  443.95
     81.0700	  950.00	  922.47	-2049.72	  443.75
     81.1700	 1068.00	 1006.61	-2015.86	  443.55
     81.2700	 1169.00	 1100.15	-2008.40	  443.36
     81.3700	 1228.00	 1198.40	-2047.65	  443.16
     81.4700	 1372.00	 1294.67	-1999.92	  442.96
     81.5700	 1380.00	 1380.76	-2078.01	  442.76
     81.6700	 1528.00	 1448.32	-1997.57	  442.57
     81.7700	 1413.00	 1490.73	-2154.98	  442.37
     81.8700	 1491.00	 1504.70	-2090.95	  442.17
     81.9700	 1451.00	 1490.40	-2116.65	  441.97
     82.0700	 1422.00	 1450.75	-2106.00	  441.77
     82.1700	 1329.00	 1390.86	-2139.11	  441.57
     82.2700	 1327.00	 1317.25	-2067.50	  441.37
     82.3700	 1257.00	 1236.63	-2056.88	  441.17
     82.4700	 1217.00	 1154.83	-2015.08	  440.97
     82.5700	 1128.00	 1076.34	-2025.59	  440.77
     82.6700	  997.00	 1004.29	-2084.54	  440.57
     82.7700	  927.00	  940.50	-2090.75	  440.37
     82.8700	  850.00	  885.59	-2112.84	  440.16
     82.9700	  789.00	  839.09	-2127.34	  439.96
     83.0700	  779.00	  799.88	-2098.13	  439.76
     83.1700	  766.00	  766.72	-2077.97	  439.56
     83.2700	  705.00	  738.57	-2110.82	  439.36
     83.3700	  695.00	  714.80	-2097.05	  439.15
     83.4700	  684.00	  695.03	-2088.28	  438.95
     83.5700	  644.00	  679.05	-2112.30	  438.75
     83.6700	  643.00	  666.72	-2100.97	  438.55
     83.7700	  656.00	  657.93	-2079.18	  438.34
     83.8700	  633.00	  652.54	-2096.79	  438.14
     83.9700	  619.00	  650.34	-2108.59	  437.94
     84.0700	  634.00	  651.00	-2094.25	  437.73
     84.1700	  615.00	  653.91	-2116.16	  437.53
     84.2700	  605.00	  658.74	-2130.99	  437.33
     84.3700	  628.00	  664.61	-2113.86	  437.12
     84.4700	  623.00	  670.64	-2124.89	  436.92
     84.5700	  684.00	  675.79	-2069.04	  436.71
     84.6700	  716.00	  679.29	-2040.54	  436.51
     84.7700	  672.00	  680.26	-2085.51	  436.31
     84.8700	  629.00	  678.32	-2126.57	  436.10
     84.9700	  684.00	  673.58	-2066.83	  435.90
     85.0700	  612.00	  666.60	-2131.85	  435.69
     85.1700	  636.00	  658.17	-2099.42	  435.49
     85.2700	  651.00	  649.11	-2075.36	  435.29
     85.3700	  609.00	  640.12	-2108.37	  435.08
     85.4700	  637.00	  631.80	-2072.05	  434.88
     85.5700	  588.00	  624.59	-2113.84	  434.67
     85.6700	  633.00	  618.79	-2063.04	  434.47
     85.7700	  579.00	  614.59	-2112.84	  434.27
     85.8700	  634.00	  612.10	-2055.35	  434.06
     85.9700	  626.00	  611.36	-2062.61	  433.86
     86.0700	  610.00	  612.38	-2079.63	  433.65
     86.1700	  590.00	  615.15	-2102.40	  433.45
     86.2700	  647.00	  619.65	-2049.90	  433.25
     86.3700	  651.00	  625.81	-2052.06	  433.04
     86.4700	  638.00	  633.52	-2072.77	  432.84
     86.5700	  663.00	  642.59	-2056.84	  432.64
     86.6700	  627.00	  652.75	-2103.00	  432.43
     86.7700	  670.00	  663.65	-2070.90	  432.23
     86.8700	  688.00	  674.83	-2064.08	  432.03
     86.9700	  733.00	  685.75	-2030.00	  431.83
     87.0700	  660.00	  695.85	-2113.10	  431.62
     87.1700	  715.00	  704.67	-2066.92	  431.42
     87.2700	  701.00	  712.07	-2088.32	  431.22
     87.3700	  711.00	  718.22	-2084.47	  431.02
     87.4700	  675.00	  723.56	-2125.81	  430.82
     87.5700	  739.00	  728.65	-2066.90	  430.61
     87.6700	  702.00	  733.88	-2109.13	  430.41
     87.7700	  731.00	  739.43	-2085.68	  430.21
     87.8700	  751.00	  745.14	-2071.39	  430.01
     87.9700	  736.00	  750.55	-2091.80	  429.81
     88.0700	  735.00	  754.90	-2097.15	  429.61
     88.1700	  745.00	  757.25	-2089.50	  429.41
     88.2700	  741.00	  756.71	-2092.96	  429.21
     88.3700	  739.00	  752.70	-2090.95	  429.01
     88.4700	  747.00	  745.20	-2075.45	  428.81
     88.5700	  723.00	  734.71	-2088.96	  428.62
     88.6700	  680.00	  722.08	-2119.33	  428.42
     88.7700	  707.00	  708.28	-2078.53	  428.22
     88.8700	  674.00	  693.82	-2097.07	  428.02
     88.9700	  672.00	  680.38	-2085.63	  427.83
     89.0700	  678.00	  668.20	-2067.45	  427.63
     89.1700	  652.00	  657.80	-2083.05	  427.43
     89.2700	  652.00	  649.51	-2074.76	  427.24
     89.3700	  661.00	  643.49	-2059.74	  427.04
     89.4700	  617.00	  639.70	-2099.95	  426.85
     89.5700	  641.00	  637.97	-2074.22	  426.65
     89.6700	  665.00	  637.97	-2050.23	  426.46
     89.7700	  645.00	  639.29	-2071.54	  426.26
     89.8700	  640.00	  641.39	-2078.64	  426.07
     89.9700	  700.00	  643.71	-2020.96	  425.88
     90.0700	  748.00	  645.65	-1974.90	  425.69
     90.1700	  720.00	  646.65	-2003.90	  425.49
     90.2700	  720.00	  646.29	-2003.54	  425.30
     90.3700	  697.00	  644.39	-2024.64	  425.11
     90.4700	  653.00	  641.02	-2065.27	  424.92
     90.5700	  637.00	  636.44	-2076.69	  424.73
     90.6700	  621.00	  631.05	-2087.30	  424.54
     90.7700	  663.00	  625.23	-2039.48	  424.35
     90.8700	  651.00	  619.36	-2045.61	  424.17
     90.9700	  659.00	  613.73	-2031.98	  423.98
     91.0700	  589.00	  608.57	-2096.82	  423.79
     91.1700	  576.00	  604.02	-2105.27	  423.61
     91.2700	  603.00	  600.17	-2074.42	  423.42
     91.3700	  604.00	  597.06	-2070.31	  423.24
     91.4700	  590.00	  594.65	-2081.90	  423.05
     91.5700	  594.00	  592.92	-2076.17	  422.87
     91.6700	  612.00	  591.80	-2057.05	  422.68
     91.7700	  607.00	  591.24	-2061.49	  422.50
     91.8700	  623.00	  591.19	-2045.44	  422.32
     91.9700	  583.00	  591.64	-2085.89	  422.14
     92.0700	  589.00	  592.62	-2080.87	  421.96
     92.1700	  610.00	  594.17	-2061.42	  421.78
     92.2700	  591.00	  596.41	-2082.66	  421.60
     92.3700	  583.00	  599.48	-2093.73	  421.42
     92.4700	  630.00	  603.55	-2050.80	  421.25
     92.5700	  613.00	  608.86	-2073.11	  421.07
     92.6700	  582.00	  615.63	-2110.88	  420.89
     92.7700	  639.00	  624.11	-2062.36	  420.72
     92.8700	  657.00	  634.51	-2054.76	  420.54
     92.9700	  638.00	  646.99	-2086.24	  420.37
     93.0700	  639.00	  661.66	-2099.91	  420.20
     93.1700	  644.00	  678.50	-2111.75	  420.03
     93.2700	  708.00	  697.37	-2066.62	  419.85
     93.3700	  659.00	  717.99	-2136.24	  419.68
     93.4700	  697.00	  739.90	-2120.15	  419.52
     93.5700	  774.00	  762.52	-2065.77	  419.35
     93.6700	  692.00	  785.07	-2170.32	  419.18
     93.7700	  810.00	  806.69	-2073.94	  419.01
     93.8700	  779.00	  826.54	-2124.79	  418.85
     93.9700	  808.00	  843.97	-2113.22	  418.68
     94.0700	  783.00	  858.75	-2153.00	  418.52
     94.1700	  895.00	  871.15	-2053.40	  418.36
     94.2700	  859.00	  881.82	-2100.07	  418.19
     94.3700	  904.00	  891.62	-2064.87	  418.03
     94.4700	  857.00	  901.04	-2121.29	  417.87
     94.5700	  933.00	  911.34	-2055.59	  417.71
     94.6700	  963.00	  922.60	-2036.85	  417.56
     94.7700	  929.00	  935.08	-2083.33	  417.40
     94.8700	  956.00	  948.93	-2070.18	  417.24
     94.9700	  964.00	  964.26	-2077.51	  417.09
     95.0700	  962.00	  981.05	-2096.30	  416.93
     95.1700	  953.00	  999.02	-2123.27	  416.78
     95.2700	 1041.00	 1017.48	-2053.73	  416.63
     95.3700	 1035.00	 1035.23	-2077.48	  416.48
     95.4700	 1039.00	 1050.66	-2088.91	  416.33
     95.5700	 1109.00	 1061.84	-2030.09	  416.18
     95.6700	 1025.00	 1066.86	-2119.11	  416.03
     95.7700	 1040.00	 1064.14	-2101.39	  415.88
     95.8700	 1020.00	 1052.90	-2110.15	  415.74
     95.9700	 1026.00	 1033.44	-2084.69	  415.59
     96.0700	 1006.00	 1006.99	-2078.24	  415.45
     96.1700	  974.00	  975.52	-2078.77	  415.31
     96.2700	  891.00	  941.33	-2127.58	  415.17
     96.3700	  896.00	  906.79	-2088.04	  415.03
     96.4700	  840.00	  874.19	-2111.44	  414.89
     96.5700	  811.00	  845.57	-2111.82	  414.75
     96.6700	  850.00	  822.74	-2049.99	  414.62
     96.7700	  837.00	  807.22	-2047.47	  414.48
     96.8700	  834.00	  800.26	-2043.51	  414.35
     96.9700	  781.00	  802.80	-2099.05	  414.22
     97.0700	  851.00	  815.57	-2041.82	  414.09
     97.1700	  909.00	  839.04	-2007.29	  413.96
     97.2700	  884.00	  873.40	-2066.65	  413.83
     97.3700	  964.00	  918.59	-2031.84	  413.70
     97.4700	 1005.00	  974.16	-2046.41	  413.58
     97.5700	 1031.00	 1039.28	-2085.53	  413.45
     97.6700	 1166.00	 1112.64	-2023.89	  413.33
     97.7700	 1178.00	 1192.33	-2091.58	  413.21
     97.8700	 1293.00	 1275.85	-2060.10	  413.08
     97.9700	 1407.00	 1360.03	-2030.28	  412.97
     98.0700	 1393.00	 1441.09	-2125.34	  412.85
     98.1700	 1488.00	 1514.73	-2103.98	  412.73
     98.2700	 1525.00	 1576.31	-2128.56	  412.62
     98.3700	 1566.00	 1621.39	-2132.64	  412.50
     98.4700	 1584.00	 1646.46	-2139.71	  412.39
     98.5700	 1633.00	 1649.66	-2093.91	  412.28
     98.6700	 1582.00	 1631.20	-2126.45	  412.17
     98.7700	 1491.00	 1593.29	-2179.54	  412.06
     98.8700	 1508.00	 1539.54	-2108.79	  411.96
     98.9700	 1491.00	 1474.30	-2060.55	  411.85
     99.0700	 1356.00	 1402.02	-2123.27	  411.75
     99.1700	 1320.00	 1326.93	-2084.18	  411.65
     99.2700	 1251.00	 1252.83	-2079.08	  411.54
     99.3700	 1181.00	 1183.01	-2079.26	  411.45
     99.4700	 1201.00	 1120.23	-1996.48	  411.35
     99.5700	 1088.00	 1066.72	-2055.97	  411.25
     99.6700	 1045.00	 1024.27	-2056.52	  411.16
     99.7700	 1036.00	  994.28	-2035.53	  411.06
     99.8700	  948.00	  977.78	-2107.03	  410.97
     99.9700	  964.00	  975.47	-2088.72	  410.88
    100.0700	 1007.00	  987.71	-2057.96	  410.80
    100.1700	 1022.00	 1014.60	-2069.85	  410.71
    100.2700	 1108.00	 1055.93	-2025.18	  410.62
    100.3700	 1198.00	 1111.14	-1990.39	  410.54
    100.4700	 1230.00	 1179.32	-2026.57	  410.46
    100.5700	 1272.00	 1259.15	-2064.40	  410.38
    100.6700	 1342.00	 1348.86	-2084.11	  410.30
    100.7700	 1451.00	 1446.16	-2072.41	  410.22
    100.8700	 1498.00	 1548.14	-2127.39	  410.15
    100.9700	 1585.00	 1651.64	-2143.89	  410.08
    101.0700	 1796.00	 1752.84	-2034.09	  410.00
    101.1700	 1830.00	 1847.86	-2095.11	  409.94
    101.2700	 1903.00	 1933.03	-2107.28	  409.87
    101.3700	 2025.00	 2005.35	-2057.60	  409.80
    101.4700	 2115.00	 2062.72	-2024.97	  409.74
    101.5700	 2112.00	 2103.97	-2069.22	  409.67
    101.6700	 2065.00	 2128.54	-2140.79	  409.61
    101.7700	 2106.00	 2136.15	-2107.40	  409.55
    101.8700	 2155.00	 2126.71	-2048.96	  409.50
    101.9700	 2124.00	 2100.45	-2053.70	  409.44
    102.0700	 2168.00	 2058.32	-1967.57	  409.39
    102.1700	 2014.00	 2002.21	-2065.46	  409.33
    102.2700	 1988.00	 1935.09	-2024.34	  409.28
    102.3700	 1954.00	 1860.74	-1983.99	  409.24
    102.4700	 1889.00	 1783.18	-1971.43	  409.19
    102.5700	 1714.00	 1706.21	-2069.46	  409.14
    102.6700	 1669.00	 1632.96	-2041.21	  409.10
    102.7700	 1576.00	 1565.80	-2067.05	  409.06
    102.8700	 1634.00	 1506.22	-1949.47	  409.02
    102.9700	 1452.00	 1454.92	-2080.17	  408.98
    103.0700	 1421.00	 1411.80	-2068.05	  408.95
    103.1700	 1395.00	 1376.08	-2058.33	  408.92
    103.2700	 1228.00	 1346.42	-2195.67	  408.88
    103.3700	 1321.00	 1321.00	-2077.25	  408.86
    103.4700	 1278.00	 1297.70	-2096.95	  408.83
    103.5700	 1305.00	 1274.33	-2046.58	  408.80
    103.6700	 1228.00	 1248.93	-2098.18	  408.78
    103.7700	 1197.00	 1220.08	-2100.33	  408.76
    103.8700	 1170.00	 1187.08	-2094.33	  408.74
    103.9700	 1118.00	 1149.94	-2109.19	  408.72
    104.0700	 1049.00	 1109.29	-2137.54	  408.71
    104.1700	 1063.00	 1066.11	-2080.36	  408.69
    104.2700	 1061.00	 1021.56	-2037.81	  408.68
    104.3700	  982.00	  976.78	-2072.03	  408.67
    104.4700	  929.00	  932.83	-2081.08	  408.67
    104.5700	  938.00	  890.61	-2029.86	  408.66
    104.6700	  823.00	  850.87	-2105.12	  408.66
    104.7700	  860.00	  814.20	-2031.45	  408.66
    104.8700	  779.00	  780.91	-2079.16	  408.66
    104.9700	  785.00	  751.36	-2043.61	  408.66
    105.0700	  779.00	  725.53	-2023.78	  408.67
    105.1700	  716.00	  703.35	-2064.60	  408.68
    105.2700	  688.00	  684.63	-2073.88	  408.69
    105.3700	  704.00	  669.10	-2042.35	  408.70
    105.4700	  665.00	  656.44	-2068.69	  408.71
    105.5700	  652.00	  646.32	-2071.57	  408.73
    105.6700	  625.00	  638.35	-2090.60	  408.75
    105.7700	  638.00	  632.33	-2071.58	  408.77
    105.8700	  604.00	  627.92	-2101.17	  408.79
    105.9700	  645.00	  624.91	-2057.16	  408.82
    106.0700	  612.00	  623.10	-2088.35	  408.85
    106.1700	  686.00	  622.38	-2013.63	  408.88
    106.2700	  646.00	  622.65	-2053.90	  408.91
    106.3700	  643.00	  623.89	-2058.14	  408.94
    106.4700	  654.00	  626.07	-2049.32	  408.98
    106.5700	  633.00	  629.23	-2073.48	  409.02
    106.6700	  640.00	  633.42	-2070.67	  409.06
    106.7700	  613.00	  638.69	-2102.94	  409.10
    106.8700	  622.00	  645.13	-2100.38	  409.15
    106.9700	  619.00	  652.78	-2111.03	  409.20
    107.0700	  684.00	  661.69	-2054.94	  409.25
    107.1700	  685.00	  671.87	-2064.12	  409.30
    107.2700	  707.00	  683.27	-2053.52	  409.36
    107.3700	  677.00	  695.79	-2096.04	  409.42
    107.4700	  719.00	  709.29	-2067.54	  409.48
    107.5700	  668.00	  723.53	-2132.78	  409.54
    107.6700	  704.00	  738.21	-2111.46	  409.60
    107.7700	  701.00	  752.98	-2129.23	  409.67
    107.8700	  735.00	  767.41	-2109.66	  409.74
    107.9700	  739.00	  781.05	-2119.30	  409.82
    108.0700	  749.00	  793.42	-2121.67	  409.89
    108.1700	  755.00	  804.03	-2126.28	  409.97
    108.2700	  764.00	  812.52	-2125.77	  410.05
    108.3700	  759.00	  818.59	-2136.84	  410.13
    108.4700	  787.00	  822.24	-2112.49	  410.22
    108.5700	  751.00	  823.58	-2149.83	  410.30
    108.6700	  798.00	  822.95	-2102.20	  410.39
    108.7700	  802.00	  820.82	-2096.07	  410.49
    108.8700	  794.00	  817.73	-2100.98	  410.58
    108.9700	  811.00	  814.19	-2080.44	  410.68
    109.0700	  779.00	  810.70	-2108.95	  410.78
    109.1700	  773.00	  807.63	-2111.88	  410.88
    109.2700	  738.00	  805.25	-2144.50	  410.99
    109.3700	  777.00	  803.75	-2104.00	  411.09
    109.4700	  795.00	  803.14	-2085.39	  411.20
    109.5700	  734.00	  803.35	-2146.60	  411.32
    109.6700	  785.00	  804.18	-2096.44	  411.43
    109.7700	  820.00	  805.32	-2062.57	  411.55
    109.8700	  810.00	  806.36	-2073.61	  411.67
    109.9700	  786.00	  806.87	-2098.12	  411.80
    110.0700	  749.00	  806.36	-2134.61	  411.92
    110.1700	  737.00	  804.49	-2144.74	  412.05
    110.2700	  724.00	  800.93	-2154.18	  412.18
    110.3700	  699.00	  795.55	-2173.80	  412.32
    110.4700	  782.00	  788.39	-2083.64	  412.46
    110.5700	  789.00	  779.60	-2067.85	  412.59
    110.6700	  767.00	  769.47	-2079.72	  412.74
    110.7700	  758.00	  758.33	-2077.58	  412.88
    110.8700	  731.00	  746.54	-2092.79	  413.03
    110.9700	  731.00	  734.45	-2080.70	  413.18
    111.0700	  732.00	  722.37	-2067.62	  413.34
    111.1700	  701.00	  710.58	-2086.83	  413.49
    111.2700	  653.00	  699.34	-2123.59	  413.65
    111.3700	  624.00	  688.82	-2142.07	  413.81
    111.4700	  725.00	  679.18	-2031.43	  413.98
    111.5700	  666.00	  670.54	-2081.79	  414.14
    111.6700	  689.00	  662.96	-2051.21	  414.31
    111.7700	  703.00	  656.47	-2030.72	  414.49
    111.8700	  650.00	  651.07	-2078.32	  414.66
    111.9700	  643.00	  646.71	-2080.96	  414.84
    112.0700	  642.00	  643.35	-2078.60	  415.02
    112.1700	  664.00	  640.90	-2054.15	  415.21
    112.2700	  641.00	  639.28	-2075.53	  415.40
    112.3700	  583.00	  638.39	-2132.64	  415.59
    112.4700	  622.00	  638.13	-2093.38	  415.78
    112.5700	  645.00	  638.40	-2070.65	  415.98
    112.6700	  585.00	  639.10	-2131.35	  416.18
    112.7700	  657.00	  640.15	-2060.40	  416.38
    112.8700	  656.00	  641.46	-2062.71	  416.58
    112.9700	  606.00	  642.97	-2114.22	  416.79
    113.0700	  651.00	  644.62	-2070.87	  417.00
    113.1700	  630.00	  646.37	-2093.62	  417.21
    113.2700	  614.00	  648.21	-2111.46	  417.43
    113.3700	  629.00	  650.13	-2098.38	  417.65
    113.4700	  621.00	  652.16	-2108.41	  417.87
    113.5700	  629.00	  654.32	-2102.57	  418.10
    113.6700	  618.00	  656.66	-2115.91	  418.33
    113.7700	  668.00	  659.23	-2068.48	  418.56
    113.8700	  649.00	  662.08	-2090.33	  418.79
    113.9700	  608.00	  665.33	-2134.58	  419.03
    114.0700	  631.00	  669.07	-2115.32	  419.27
    114.1700	  654.00	  673.42	-2096.67	  419.52
    114.2700	  673.00	  678.53	-2082.78	  419.76
    114.3700	  669.00	  684.62	-2092.87	  420.01
    114.4700	  727.00	  691.95	-2042.20	  420.27
    114.5700	  745.00	  700.85	-2033.10	  420.52
    114.6700	  734.00	  711.77	-2055.02	  420.78
    114.7700	  749.00	  725.26	-2053.51	  421.04
    114.8700	  769.00	  742.02	-2050.27	  421.31
    114.9700	  752.00	  762.94	-2088.19	  421.58
    115.0700	  845.00	  789.09	-2021.34	  421.85
    115.1700	  810.00	  821.79	-2089.04	  422.12
    115.2700	  887.00	  862.58	-2052.83	  422.40
    115.3700	  980.00	  913.31	-2010.56	  422.68
    115.4700	 1112.00	  976.07	-1941.32	  422.97
    115.5700	 1202.00	 1053.21	-1928.46	  423.25
    115.6700	 1242.00	 1147.30	-1982.55	  423.55
    115.7700	 1422.00	 1261.08	-1916.33	  423.84
    115.8700	 1564.00	 1397.38	-1910.63	  424.14
    115.9700	 1843.00	 1558.98	-1793.23	  424.44
    116.0700	 2038.00	 1748.53	-1787.78	  424.74
    116.1700	 2271.00	 1968.31	-1774.56	  425.05
    116.2700	 2531.00	 2220.07	-1766.32	  425.36
    116.3700	 2702.00	 2504.93	-1880.18	  425.67
    116.4700	 2974.00	 2822.97	-1926.22	  425.99
    116.5700	 3309.00	 3173.36	-1941.61	  426.30
    116.6700	 3785.00	 3553.84	-1846.09	  426.63
    116.7700	 4084.00	 3960.79	-1954.04	  426.95
    116.8700	 4446.00	 4389.33	-2020.58	  427.28
    116.9700	 4890.00	 4832.79	-2020.04	  427.62
    117.0700	 5276.00	 5283.46	-2084.71	  427.95
    117.1700	 5747.00	 5731.97	-2062.22	  428.29
    117.2700	 5890.00	 6167.84	-2355.09	  428.63
    117.3700	 6357.00	 6579.83	-2300.08	  428.98
    117.4700	 6792.00	 6955.88	-2241.13	  429.33
    117.5700	 6946.00	 7284.04	-2415.29	  429.68
    117.6700	 7173.00	 7552.72	-2456.97	  430.04
    117.7700	 7410.00	 7751.68	-2418.93	  430.40
    117.8700	 7481.00	 7872.96	-2469.21	  430.76
    117.9700	 7695.00	 7911.59	-2293.84	  431.12
    118.0700	 7652.00	 7866.24	-2291.49	  431.49
    118.1700	 7396.00	 7739.39	-2420.64	  431.87
    118.2700	 7502.00	 7537.01	-2112.26	  432.24
    118.3700	 7013.00	 7267.77	-2332.02	  432.62
    118.4700	 6668.00	 6942.37	-2351.62	  433.01
    118.5700	 6541.00	 6572.37	-2108.62	  433.39
    118.6700	 5999.00	 6169.76	-2248.01	  433.78
    118.7700	 5644.00	 5746.23	-2179.48	  434.17
    118.8700	 5265.00	 5312.54	-2124.79	  434.57
    118.9700	 4890.00	 4878.70	-2065.95	  434.97
    119.0700	 4712.00	 4453.19	-1818.44	  435.37
    119.1700	 4323.00	 4043.31	-1797.56	  435.78
    119.2700	 3773.00	 3654.90	-1959.15	  436.19
    119.3700	 3624.00	 3292.16	-1745.41	  436.61
    119.4700	 3347.00	 2958.12	-1688.37	  437.02
    119.5700	 2963.00	 2654.34	-1768.59	  437.44
    119.6700	 2628.00	 2381.38	-1830.63	  437.87
    119.7700	 2457.00	 2138.83	-1759.08	  438.29
    119.8700	 2168.00	 1925.45	-1834.70	  438.73
    119.9700	 1975.00	 1739.54	-1841.79	  439.16
    120.0700	 1732.00	 1578.90	-1924.15	  439.60
    120.1700	 1629.00	 1441.15	-1889.40	  440.04
    120.2700	 1502.00	 1323.84	-1899.09	  440.49
    120.3700	 1358.00	 1224.43	-1943.68	  440.93
    120.4700	 1336.00	 1140.57	-1881.82	  441.39
    120.5700	 1180.00	 1070.01	-1967.26	  441.84
    120.6700	 1089.00	 1010.76	-1999.01	  442.30
    120.7700	 1039.00	  961.02	-1999.27	  442.77
    120.8700	  996.00	  919.24	-2000.49	  443.23
    120.9700	  949.00	  884.11	-2012.36	  443.70
    121.0700	  892.00	  854.51	-2039.76	  444.18
    121.1700	  848.00	  829.53	-2058.78	  444.65
    121.2700	  805.00	  808.44	-2080.69	  445.13
    121.3700	  817.00	  790.63	-2050.88	  445.62
    121.4700	  807.00	  775.61	-2045.86	  446.11
    121.5700	  769.00	  763.01	-2071.26	  446.60
    121.6700	  753.00	  752.51	-2076.76	  447.09
    121.7700	  762.00	  743.88	-2059.13	  447.59
    121.8700	  682.00	  736.91	-2132.16	  448.10
    121.9700	  728.00	  731.45	-2080.70	  448.60
    122.0700	  685.00	  727.38	-2119.63	  449.11
    122.1700	  670.00	  724.59	-2131.84	  449.62
    122.2700	  716.00	  723.00	-2084.25	  450.14
    122.3700	  691.00	  722.52	-2108.77	  450.66
    122.4700	  716.00	  723.11	-2084.36	  451.19
    122.5700	  681.00	  724.70	-2120.95	  451.72
    122.6700	  662.00	  727.24	-2142.49	  452.25
    122.7700	  694.00	  730.68	-2113.93	  452.78
    122.8700	  723.00	  734.94	-2089.19	  453.32
    122.9700	  720.00	  739.99	-2097.24	  453.86
    123.0700	  709.00	  745.73	-2113.98	  454.41
    123.1700	  674.00	  752.11	-2155.36	  454.96
    123.2700	  692.00	  759.03	-2144.28	  455.52
    123.3700	  696.00	  766.40	-2147.65	  456.07
    123.4700	  692.00	  774.12	-2159.37	  456.63
    123.5700	  726.00	  782.08	-2133.33	  457.20
    123.6700	  771.00	  790.16	-2096.41	  457.77
    123.7700	  760.00	  798.23	-2115.48	  458.34
    123.8700	  793.00	  806.18	-2090.43	  458.92
    123.9700	  775.00	  813.88	-2116.13	  459.50
    124.0700	  867.00	  821.20	-2031.45	  460.08
    124.1700	  762.00	  828.05	-2143.30	  460.67
    124.2700	  818.00	  834.35	-2093.60	  461.26
    124.3700	  791.00	  840.03	-2126.28	  461.86
    124.4700	  802.00	  845.05	-2120.30	  462.45
    124.5700	  791.00	  849.46	-2135.71	  463.06
    124.6700	  841.00	  853.27	-2089.52	  463.66
    124.7700	  835.00	  856.52	-2098.77	  464.27
    124.8700	  860.00	  859.28	-2076.53	  464.89
    124.9700	  804.00	  601.72	-1874.97	  465.51
    125.0700	  798.00	  602.35	-2077.25	  466.13
    125.1700	  800.00	  602.97	-2077.25	  466.75
    125.2700	  789.00	  603.60	-2077.25	  467.38
    125.3700	  812.00	  604.23	-2077.25	  468.01
    125.4700	  830.00	  604.87	-2077.25	  468.65
    125.5700	  836.00	  605.51	-2077.25	  469.29
    125.6700	  823.00	  606.16	-2077.25	  469.94
    125.7700	  781.00	  606.80	-2077.25	  470.58
    125.8700	  825.00	  607.46	-2077.25	  471.24
    125.9700	  797.00	  608.11	-2077.25	  471.89
    126.0700	  780.00	  608.77	-2077.25	  472.55
    126.1700	  804.00	  609.44	-2077.25	  473.22
    126.2700	  772.00	  610.10	-2077.25	  473.88
    126.3700	  755.00	  610.77	-2077.25	  474.55
    126.4700	  751.00	  611.45	-2077.25	  475.23
    126.5700	  825.00	  612.13	-2077.25	  475.91
    126.6700	  771.00	  612.81	-2077.25	  476.59
    126.7700	  781.00	  613.50	-2077.25	  477.28
    126.8700	  735.00	  614.19	-2077.25	  477.97
    126.9700	  798.00	  614.88	-2077.25	  478.66
    127.0700	  687.00	  615.58	-2077.25	  479.36
    127.1700	  691.00	  616.28	-2077.25	  480.06
    127.2700	  713.00	  616.99	-2077.25	  480.77
    127.3700	  664.00	  617.70	-2077.25	  481.48
    127.4700	  666.00	  618.41	-2077.25	  482.19
    127.5700	  694.00	  619.13	-2077.25	  482.91
    127.6700	  667.00	  619.85	-2077.25	  483.63
    127.7700	  669.00	  620.58	-2077.25	  484.36
    127.8700	  614.00	  621.31	-2077.25	  485.09
    127.9700	  671.00	  622.04	-2077.25	  485.82
    128.0700	  666.00	  622.78	-2077.25	  486.56
    128.1700	  657.00	  623.52	-2077.25	  487.30
    128.2700	  678.00	  624.27	-2077.25	  488.05
    128.3700	  675.00	  625.01	-2077.25	  488.80
    128.4700	  656.00	  625.77	-2077.25	  489.55
    128.5700	    0.00	  626.52	-2077.25	  490.31
    128.6700	    0.00	  627.29	-2077.25	  491.07
     12.4424	        	        	        	        	       0	(  0  0  2)	  0  1
     12.4424	        	        	        	        	    -519	(  0  0  2)	  0  1
     25.1227	        	        	        	        	       0	(  0  0  4)	  0  1
     25.1227	        	        	        	        	    -519	(  0  0  4)	  0  1
     28.5685	        	        	        	        	       0	(  1  0  0)	  0  1
     28.5685	        	        	        	        	    -519	(  1  0  0)	  0  1
     29.2718	        	        	        	        	       0	(  1  0  1)	  0  1
     29.2718	        	        	        	        	    -519	(  1  0  1)	  0  1
     31.2955	        	        	        	        	       0	(  1  0  2)	  0  1
     31.2955	        	        	        	        	    -519	(  1  0  2)	  0  1
     34.4309	        	        	        	        	       0	(  1  0  3)	  0  1
     34.4309	        	        	        	        	    -519	(  1  0  3)	  0  1
     38.1265	        	        	        	        	       0	(  0  0  6)	  0  1
     38.1265	        	        	        	        	    -519	(  0  0  6)	  0  1
     38.4428	        	        	        	        	       0	(  1  0  4)	  0  1
     38.4428	        	        	        	        	    -519	(  1  0  4)	  0  1
     43.1342	        	        	        	        	       0	(  1  0  5)	  0  1
     43.1342	        	        	        	        	    -519	(  1  0  5)	  0  1
     48.3654	        	        	        	        	       0	(  1  0  6)	  0  1
     48.3654	        	        	        	        	    -519	(  1  0  6)	  0  1
     50.6722	        	        	        	        	       0	(  1  1  0)	  0  1
     50.6722	        	        	        	        	    -519	(  1  1  0)	  0  1
     51.6660	        	        	        	        	       0	(  0  0  8)	  0  1
     51.6660	        	        	        	        	    -519	(  0  0  8)	  0  1
     52.4122	        	        	        	        	       0	(  1  1  2)	  0  1
     52.4122	        	        	        	        	    -519	(  1  1  2)	  0  1
     54.0488	        	        	        	        	       0	(  1  0  7)	  0  1
     54.0488	        	        	        	        	    -519	(  1  0  7)	  0  1
     57.4097	        	        	        	        	       0	(  1  1  4)	  0  1
     57.4097	        	        	        	        	    -519	(  1  1  4)	  0  1
     59.2416	        	        	        	        	       0	(  2  0  0)	  0  1
     59.2416	        	        	        	        	    -519	(  2  0  0)	  0  1
     59.6373	        	        	        	        	       0	(  2  0  1)	  0  1
     59.6373	        	        	        	        	    -519	(  2  0  1)	  0  1
     60.1386	        	        	        	        	       0	(  1  0  8)	  0  1
     60.1386	        	        	        	        	    -519	(  1  0  8)	  0  1
     60.8149	        	        	        	        	       0	(  2  0  2)	  0  1
     60.8149	        	        	        	        	    -519	(  2  0  2)	  0  1
     62.7485	        	        	        	        	       0	(  2  0  3)	  0  1
     62.7485	        	        	        	        	    -519	(  2  0  3)	  0  1
     65.1851	        	        	        	        	       0	(  1  1  6)	  0  1
     65.1851	        	        	        	        	    -519	(  1  1  6)	  0  1
     65.4011	        	        	        	        	       0	(  2  0  4)	  0  1
     65.4011	        	        	        	        	    -519	(  2  0  4)	  0  1
     66.0356	        	        	        	        	       0	(  0  0 10)	  0  1
     66.0356	        	        	        	        	    -519	(  0  0 10)	  0  1
     66.6220	        	        	        	        	       0	(  1  0  9)	  0  1
     66.6220	        	        	        	        	    -519	(  1  0  9)	  0  1
     68.7320	        	        	        	        	       0	(  2  0  5)	  0  1
     68.7320	        	        	        	        	    -519	(  2  0  5)	  0  1
     72.7049	        	        	        	        	       0	(  2  0  6)	  0  1
     72.7049	        	        	        	        	    -519	(  2  0  6)	  0  1
     73.5146	        	        	        	        	       0	(  1  0 10)	  0  1
     73.5146	        	        	        	        	    -519	(  1  0 10)	  0  1
     75.3376	        	        	        	        	       0	(  1  1  8)	  0  1
     75.3376	        	        	        	        	    -519	(  1  1  8)	  0  1
     77.2939	        	        	        	        	       0	(  2  0  7)	  0  1
     77.2939	        	        	        	        	    -519	(  2  0  7)	  0  1
     80.8614	        	        	        	        	       0	(  1  0 11)	  0  1
     80.8614	        	        	        	        	    -519	(  1  0 11)	  0  1
     81.6976	        	        	        	        	       0	(  0  0 12)	  0  1
     81.6976	        	        	        	        	    -519	(  0  0 12)	  0  1
     81.7079	        	        	        	        	       0	(  2  1  0)	  0  1
     81.7079	        	        	        	        	    -519	(  2  1  0)	  0  1
     82.0523	        	        	        	        	       0	(  2  1  1)	  0  1
     82.0523	        	        	        	        	    -519	(  2  1  1)	  0  1
     82.4902	        	        	        	        	       0	(  2  0  8)	  0  1
     82.4902	        	        	        	        	    -519	(  2  0  8)	  0  1
     83.0838	        	        	        	        	       0	(  2  1  2)	  0  1
     83.0838	        	        	        	        	    -519	(  2  1  2)	  0  1
     84.7983	        	        	        	        	       0	(  2  1  3)	  0  1
     84.7983	        	        	        	        	    -519	(  2  1  3)	  0  1
     87.1911	        	        	        	        	       0	(  2  1  4)	  0  1
     87.1911	        	        	        	        	    -519	(  2  1  4)	  0  1
     87.7705	        	        	        	        	       0	(  1  1 10)	  0  1
     87.7705	        	        	        	        	    -519	(  1  1 10)	  0  1
     88.3081	        	        	        	        	       0	(  2  0  9)	  0  1
     88.3081	        	        	        	        	    -519	(  2  0  9)	  0  1
     88.7423	        	        	        	        	       0	(  1  0 12)	  0  1
     88.7423	        	        	        	        	    -519	(  1  0 12)	  0  1
     90.2613	        	        	        	        	       0	(  2  1  5)	  0  1
     90.2613	        	        	        	        	    -519	(  2  1  5)	  0  1
     94.0160	        	        	        	        	       0	(  2  1  6)	  0  1
     94.0160	        	        	        	        	    -519	(  2  1  6)	  0  1
     94.7935	        	        	        	        	       0	(  2  0 10)	  0  1
     94.7935	        	        	        	        	    -519	(  2  0 10)	  0  1
     95.7794	        	        	        	        	       0	(  3  0  0)	  0  1
     95.7794	        	        	        	        	    -519	(  3  0  0)	  0  1
     96.1224	        	        	        	        	       0	(  3  0  1)	  0  1
     96.1224	        	        	        	        	    -519	(  3  0  1)	  0  1
     97.1525	        	        	        	        	       0	(  3  0  2)	  0  1
     97.1525	        	        	        	        	    -519	(  3  0  2)	  0  1
     97.2881	        	        	        	        	       0	(  1  0 13)	  0  1
     97.2881	        	        	        	        	    -519	(  1  0 13)	  0  1
     98.4776	        	        	        	        	       0	(  2  1  7)	  0  1
     98.4776	        	        	        	        	    -519	(  2  1  7)	  0  1
     98.8748	        	        	        	        	       0	(  3  0  3)	  0  1
     98.8748	        	        	        	        	    -519	(  3  0  3)	  0  1
     99.5033	        	        	        	        	       0	(  0  0 14)	  0  1
     99.5033	        	        	        	        	    -519	(  0  0 14)	  0  1
    101.3003	        	        	        	        	       0	(  3  0  4)	  0  1
    101.3003	        	        	        	        	    -519	(  3  0  4)	  0  1
    102.0392	        	        	        	        	       0	(  2  0 11)	  0  1
    102.0392	        	        	        	        	    -519	(  2  0 11)	  0  1
    102.8862	        	        	        	        	       0	(  1  1 12)	  0  1
    102.8862	        	        	        	        	    -519	(  1  1 12)	  0  1
    103.6934	        	        	        	        	       0	(  2  1  8)	  0  1
    103.6934	        	        	        	        	    -519	(  2  1  8)	  0  1
    104.4501	        	        	        	        	       0	(  3  0  5)	  0  1
    104.4501	        	        	        	        	    -519	(  3  0  5)	  0  1
    106.7150	        	        	        	        	       0	(  1  0 14)	  0  1
    106.7150	        	        	        	        	    -519	(  1  0 14)	  0  1
    108.3629	        	        	        	        	       0	(  3  0  6)	  0  1
    108.3629	        	        	        	        	    -519	(  3  0  6)	  0  1
    109.7522	        	        	        	        	       0	(  2  1  9)	  0  1
    109.7522	        	        	        	        	    -519	(  2  1  9)	  0  1
    110.2144	        	        	        	        	       0	(  2  0 12)	  0  1
    110.2144	        	        	        	        	    -519	(  2  0 12)	  0  1
    113.1072	        	        	        	        	       0	(  3  0  7)	  0  1
    113.1072	        	        	        	        	    -519	(  3  0  7)	  0  1
    116.8150	        	        	        	        	       0	(  2  1 10)	  0  1
    116.8150	        	        	        	        	    -519	(  2  1 10)	  0  1
    117.4077	        	        	        	        	       0	(  1  0 15)	  0  1
    117.4077	        	        	        	        	    -519	(  1  0 15)	  0  1
    117.9212	        	        	        	        	       0	(  2  2  0)	  0  1
    117.9212	        	        	        	        	    -519	(  2  2  0)	  0  1
    118.8027	        	        	        	        	       0	(  3  0  8)	  0  1
    118.8027	        	        	        	        	    -519	(  3  0  8)	  0  1
    119.4776	        	        	        	        	       0	(  2  2  2)	  0  1
    119.4776	        	        	        	        	    -519	(  2  2  2)	  0  1
    119.6324	        	        	        	        	       0	(  2  0 13)	  0  1
    119.6324	        	        	        	        	    -519	(  2  0 13)	  0  1
    121.4944	        	        	        	        	       0	(  0  0 16)	  0  1
    121.4944	        	        	        	        	    -519	(  0  0 16)	  0  1
    122.1883	        	        	        	        	       0	(  1  1 14)	  0  1
    122.1883	        	        	        	        	    -519	(  1  1 14)	  0  1
    124.3032	        	        	        	        	       0	(  2  2  4)	  0  1
    124.3032	        	        	        	        	    -519	(  2  2  4)	  0  1
    125.1846	        	        	        	        	       0	(  2  1 11)	  0  1
    125.1846	        	        	        	        	    -519	(  2  1 11)	  0  1
    125.6669	        	        	        	        	       0	(  3  0  9)	  0  1
    125.6669	        	        	        	        	    -519	(  3  0  9)	  0  1
    126.2163	        	        	        	        	       0	(  3  1  0)	  0  1
    126.2163	        	        	        	        	    -519	(  3  1  0)	  0  1
    126.6406	        	        	        	        	       0	(  3  1  1)	  0  1
    126.6406	        	        	        	        	    -519	(  3  1  1)	  0  1
    127.9279	        	        	        	        	       0	(  3  1  2)	  0  1
    127.9279	        	        	        	        	    -519	(  3  1  2)	  0  1
    130.1255	        	        	        	        	       0	(  3  1  3)	  0  1
    130.1255	        	        	        	        	    -519	(  3  1  3)	  0  1
    130.1664	        	        	        	        	       0	(  1  0 16)	  0  1
    130.1664	        	        	        	        	    -519	(  1  0 16)	  0  1
    130.9426	        	        	        	        	       0	(  2  0 14)	  0  1
    130.9426	        	        	        	        	    -519	(  2  0 14)	  0  1
    133.0590	        	        	        	        	       0	(  2  2  6)	  0  1
    133.0590	        	        	        	        	    -519	(  2  2  6)	  0  1
    133.3287	        	        	        	        	       0	(  3  1  4)	  0  1
    133.3287	        	        	        	        	    -519	(  3  1  4)	  0  1
    134.1308	        	        	        	        	       0	(  3  0 10)	  0  1
    134.1308	        	        	        	        	    -519	(  3  0 10)	  0  1
    135.5022	        	        	        	        	       0	(  2  1 12)	  0  1
    135.5022	        	        	        	        	    -519	(  2  1 12)	  0  1
    137.7169	        	        	        	        	       0	(  3  1  5)	  0  1
    137.7169	        	        	        	        	    -519	(  3  1  5)	  0  1
    143.6508	        	        	        	        	       0	(  3  1  6)	  0  1
    143.6508	        	        	        	        	    -519	(  3  1  6)	  0  1
    145.2359	        	        	        	        	       0	(  3  0 11)	  0  1
    145.2359	        	        	        	        	    -519	(  3  0 11)	  0  1
    145.9139	        	        	        	        	       0	(  2  0 15)	  0  1
    145.9139	        	        	        	        	    -519	(  2  0 15)	  0  1
    147.3259	        	        	        	        	       0	(  1  0 17)	  0  1
    147.3259	        	        	        	        	    -519	(  1  0 17)	  0  1
    148.1796	        	        	        	        	       0	(  2  2  8)	  0  1
    148.1796	        	        	        	        	    -519	(  2  2  8)	  0  1
    149.5830	        	        	        	        	       0	(  2  1 13)	  0  1
    149.5830	        	        	        	        	    -519	(  2  1 13)	  0  1
    152.0036	        	        	        	        	       0	(  3  1  7)	  0  1
    152.0036	        	        	        	        	    -519	(  3  1  7)	  0  1
    152.9231	        	        	        	        	       0	(  1  1 16)	  0  1
    152.9231	        	        	        	        	    -519	(  1  1 16)	  0  1
    158.1028	        	        	        	        	       0	(  0  0 18)	  0  1
    158.1028	        	        	        	        	    -519	(  0  0 18)	  0  1
    163.5009	        	        	        	        	       0	(  3  0 12)	  0  1
    163.5009	        	        	        	        	    -519	(  3  0 12)	  0  1
    163.5370	        	        	        	        	       0	(  4  0  0)	  0  1
    163.5370	        	        	        	        	    -519	(  4  0  0)	  0  1
    164.7933	        	        	        	        	       0	(  4  0  1)	  0  1
    164.7933	        	        	        	        	    -519	(  4  0  1)	  0  1
    166.5581	        	        	        	        	       0	(  3  1  8)	  0  1
    166.5581	        	        	        	        	    -519	(  3  1  8)	  0  1
    169.4070	        	        	        	        	       0	(  4  0  2)	  0  1
    169.4070	        	        	        	        	    -519	(  4  0  2)	  0  1
