MSG Master    CELL:    5.88108   5.88108  23.10744   90.0000   90.0000  120.0000   SPGR: P 63/m m c             TEMP:    536.55
  2   1280     2.52000     0.00000    -0.08738     0.00000     0.00000    0
    96    96     0     0     2
       0.00000      10.00000
     125.00000     130.00000
 2Theta	Yobs	Ycal	Yobs-Ycal	Backg	Posr	(hkl)	K
      0.7700	    0.00	  935.03	-1961.23	  799.97
      0.8700	    0.00	  932.03	-1961.23	  796.98
      0.9700	   51.00	  929.05	-1961.23	  794.00
      1.0700	   35.00	  926.10	-1961.23	  791.04
      1.1700	   48.00	  923.16	-1961.23	  788.10
      1.2700	   45.00	  920.23	-1961.23	  785.18
      1.3700	   50.00	  917.33	-1961.23	  782.27
      1.4700	  104.00	  914.44	-1961.23	  779.39
      1.5700	  273.00	  911.57	-1961.23	  776.52
      1.6700	  461.00	  908.72	-1961.23	  773.67
      1.7700	  553.00	  905.89	-1961.23	  770.83
      1.8700	  681.00	  903.07	-1961.23	  768.02
      1.9700	  675.00	  900.27	-1961.23	  765.22
      2.0700	  766.00	  897.49	-1961.23	  762.44
      2.1700	  819.00	  894.73	-1961.23	  759.67
      2.2700	  766.00	  891.98	-1961.23	  756.93
      2.3700	  777.00	  889.25	-1961.23	  754.20
      2.4700	  716.00	  886.54	-1961.23	  751.49
      2.5700	  704.00	  883.84	-1961.23	  748.79
      2.6700	  680.00	  881.17	-1961.23	  746.11
      2.7700	  649.00	  878.51	-1961.23	  743.45
      2.8700	  636.00	  875.86	-1961.23	  740.81
      2.9700	  612.00	  873.23	-1961.23	  738.18
      3.0700	  593.00	  870.62	-1961.23	  735.57
      3.1700	  631.00	  868.03	-1961.23	  732.97
      3.2700	  724.00	  865.45	-1961.23	  730.40
      3.3700	  932.00	  862.89	-1961.23	  727.83
      3.4700	 1037.00	  860.34	-1961.23	  725.29
      3.5700	 1248.00	  857.81	-1961.23	  722.76
      3.6700	 1330.00	  855.30	-1961.23	  720.25
      3.7700	 1442.00	  852.81	-1961.23	  717.75
      3.8700	 1458.00	  850.33	-1961.23	  715.27
      3.9700	 1577.00	  847.86	-1961.23	  712.81
      4.0700	 1610.00	  845.41	-1961.23	  710.36
      4.1700	 1725.00	  842.98	-1961.23	  707.93
      4.2700	 1693.00	  840.57	-1961.23	  705.51
      4.3700	 1609.00	  838.16	-1961.23	  703.11
      4.4700	 1576.00	  835.78	-1961.23	  700.73
      4.5700	 1643.00	  833.41	-1961.23	  698.36
      4.6700	 1581.00	  831.06	-1961.23	  696.00
      4.7700	 1466.00	  828.72	-1961.23	  693.67
      4.8700	 1399.00	  826.40	-1961.23	  691.34
      4.9700	 1409.00	  824.09	-1961.23	  689.04
      5.0700	 1303.00	  821.80	-1961.23	  686.74
      5.1700	 1407.00	  819.52	-1961.23	  684.47
      5.2700	 1291.00	  817.26	-1961.23	  682.21
      5.3700	 1225.00	  815.01	-1961.23	  679.96
      5.4700	 1298.00	  812.78	-1961.23	  677.73
      5.5700	 1217.00	  810.57	-1961.23	  675.51
      5.6700	 1128.00	  808.37	-1961.23	  673.31
      5.7700	 1138.00	  806.18	-1961.23	  671.12
      5.8700	 1071.00	  804.01	-1961.23	  668.95
      5.9700	 1111.00	  801.85	-1961.23	  666.80
      6.0700	 1107.00	  799.71	-1961.23	  664.65
      6.1700	 1063.00	  797.58	-1961.23	  662.53
      6.2700	 1083.00	  795.47	-1961.23	  660.41
      6.3700	 1047.00	  793.37	-1961.23	  658.31
      6.4700	  997.00	  791.28	-1961.23	  656.23
      6.5700	  926.00	  789.21	-1961.23	  654.16
      6.6700	  967.00	  787.16	-1961.23	  652.10
      6.7700	  906.00	  785.12	-1961.23	  650.06
      6.8700	  905.00	  783.09	-1961.23	  648.04
      6.9700	  926.00	  781.08	-1961.23	  646.02
      7.0700	  928.00	  779.08	-1961.23	  644.02
      7.1700	  847.00	  777.09	-1961.23	  642.04
      7.2700	  854.00	  775.12	-1961.23	  640.07
      7.3700	  845.00	  773.16	-1961.23	  638.11
      7.4700	  859.00	  771.22	-1961.23	  636.16
      7.5700	  873.00	  769.29	-1961.23	  634.23
      7.6700	  840.00	  767.37	-1961.23	  632.32
      7.7700	  827.00	  765.47	-1961.23	  630.41
      7.8700	  787.00	  763.58	-1961.23	  628.53
      7.9700	  816.00	  761.70	-1961.23	  626.65
      8.0700	  788.00	  759.84	-1961.23	  624.79
      8.1700	  821.00	  757.99	-1961.23	  622.94
      8.2700	  807.00	  756.16	-1961.23	  621.10
      8.3700	  812.00	  754.33	-1961.23	  619.28
      8.4700	  780.00	  752.52	-1961.23	  617.47
      8.5700	  736.00	  750.73	-1961.23	  615.67
      8.6700	  789.00	  748.94	-1961.23	  613.89
      8.7700	  741.00	  747.17	-1961.23	  612.12
      8.8700	  788.00	  745.41	-1961.23	  610.36
      8.9700	  785.00	  743.67	-1961.23	  608.61
      9.0700	  785.00	  741.94	-1961.23	  606.88
      9.1700	  773.00	  740.22	-1961.23	  605.16
      9.2700	  735.00	  738.51	-1961.23	  603.46
      9.3700	  708.00	  736.82	-1961.23	  601.76
      9.4700	  799.00	  735.13	-1961.23	  600.08
      9.5700	  756.00	  733.46	-1961.23	  598.41
      9.6700	  742.00	  731.81	-1961.23	  596.75
      9.7700	  780.00	  730.16	-1961.23	  595.11
      9.8700	  772.00	  728.53	-1961.23	  593.48
      9.9700	  748.00	  726.91	-1961.23	  591.86
     10.0700	  695.00	  727.45	-1993.68	  590.25
     10.1700	  736.00	  726.08	-1951.32	  588.65
     10.2700	  713.00	  724.78	-1973.01	  587.07
     10.3700	  708.00	  723.55	-1976.78	  585.50
     10.4700	  727.00	  722.41	-1956.65	  583.94
     10.5700	  692.00	  721.42	-1990.66	  582.39
     10.6700	  762.00	  720.63	-1919.87	  580.85
     10.7700	  711.00	  720.13	-1970.36	  579.33
     10.8700	  714.00	  720.00	-1967.24	  577.82
     10.9700	  695.00	  720.35	-1986.58	  576.32
     11.0700	  710.00	  721.21	-1972.45	  574.83
     11.1700	  750.00	  722.62	-1933.85	  573.35
     11.2700	  700.00	  724.58	-1985.81	  571.88
     11.3700	  756.00	  727.14	-1932.37	  570.43
     11.4700	  718.00	  730.41	-1973.64	  568.99
     11.5700	  691.00	  734.53	-2004.76	  567.55
     11.6700	  792.00	  739.73	-1908.96	  566.13
     11.7700	  729.00	  746.31	-1978.54	  564.72
     11.8700	  746.00	  754.55	-1969.79	  563.32
     11.9700	  806.00	  764.51	-1919.75	  561.94
     12.0700	  819.00	  775.60	-1917.83	  560.56
     12.1700	  881.00	  786.03	-1866.27	  559.19
     12.2700	  879.00	  792.31	-1874.54	  557.84
     12.3700	  873.00	  789.55	-1877.78	  556.50
     12.4700	  828.00	  775.36	-1908.59	  555.16
     12.5700	  751.00	  754.50	-1964.73	  553.84
     12.6700	  708.00	  734.35	-1987.59	  552.53
     12.7700	  679.00	  718.52	-2000.75	  551.23
     12.8700	  702.00	  707.23	-1966.46	  549.94
     12.9700	  630.00	  699.53	-2030.76	  548.66
     13.0700	  672.00	  694.25	-1983.48	  547.39
     13.1700	  732.00	  690.42	-1919.66	  546.13
     13.2700	  677.00	  687.44	-1971.68	  544.88
     13.3700	  633.00	  684.96	-2013.20	  543.65
     13.4700	  706.00	  682.80	-1938.03	  542.42
     13.5700	  698.00	  680.84	-1944.08	  541.20
     13.6700	  658.00	  679.05	-1982.28	  539.99
     13.7700	  674.00	  677.37	-1964.60	  538.80
     13.8700	  715.00	  675.79	-1922.02	  537.61
     13.9700	  700.00	  674.28	-1935.52	  536.43
     14.0700	  671.00	  672.84	-1963.07	  535.26
     14.1700	  683.00	  671.45	-1949.68	  534.11
     14.2700	  665.00	  670.10	-1966.33	  532.96
     14.3700	  679.00	  668.79	-1951.02	  531.82
     14.4700	  663.00	  667.51	-1965.74	  530.69
     14.5700	  636.00	  666.26	-1991.49	  529.58
     14.6700	  660.00	  665.03	-1966.26	  528.47
     14.7700	  672.00	  663.83	-1953.06	  527.37
     14.8700	  619.00	  662.65	-2004.88	  526.28
     14.9700	  619.00	  661.49	-2003.72	  525.20
     15.0700	  665.00	  660.34	-1956.58	  524.13
     15.1700	  641.00	  659.22	-1979.45	  523.07
     15.2700	  595.00	  658.11	-2024.34	  522.01
     15.3700	  621.00	  657.01	-1997.24	  520.97
     15.4700	  642.00	  655.93	-1975.16	  519.94
     15.5700	  670.00	  654.86	-1946.09	  518.91
     15.6700	  697.00	  653.81	-1918.04	  517.90
     15.7700	  668.00	  652.76	-1946.00	  516.89
     15.8700	  656.00	  651.73	-1956.97	  515.90
     15.9700	  623.00	  650.71	-1988.95	  514.91
     16.0700	  657.00	  649.71	-1953.94	  513.93
     16.1700	  648.00	  648.71	-1961.94	  512.96
     16.2700	  666.00	  647.73	-1942.96	  512.00
     16.3700	  672.00	  646.75	-1935.98	  511.05
     16.4700	  686.00	  645.79	-1921.02	  510.10
     16.5700	  634.00	  644.83	-1972.07	  509.17
     16.6700	  694.00	  643.89	-1911.12	  508.24
     16.7700	  592.00	  642.95	-2012.19	  507.32
     16.8700	  648.00	  642.03	-1955.26	  506.41
     16.9700	  626.00	  641.12	-1976.35	  505.51
     17.0700	  666.00	  640.21	-1935.44	  504.62
     17.1700	  644.00	  639.32	-1956.55	  503.74
     17.2700	  661.00	  638.43	-1938.66	  502.86
     17.3700	  635.00	  637.55	-1963.78	  501.99
     17.4700	  641.00	  636.68	-1956.92	  501.14
     17.5700	  601.00	  635.82	-1996.06	  500.28
     17.6700	  643.00	  634.97	-1953.21	  499.44
     17.7700	  676.00	  634.13	-1919.36	  498.61
     17.8700	  628.00	  633.30	-1966.53	  497.78
     17.9700	  643.00	  632.47	-1950.71	  496.96
     18.0700	  618.00	  631.66	-1974.89	  496.15
     18.1700	  601.00	  630.85	-1991.08	  495.35
     18.2700	  655.00	  630.05	-1936.28	  494.56
     18.3700	  641.00	  629.26	-1949.49	  493.77
     18.4700	  608.00	  628.48	-1981.71	  492.99
     18.5700	  639.00	  627.70	-1949.94	  492.22
     18.6700	  681.00	  626.94	-1907.17	  491.46
     18.7700	  661.00	  626.18	-1926.41	  490.70
     18.8700	  619.00	  625.43	-1967.66	  489.95
     18.9700	  617.00	  624.69	-1968.92	  489.21
     19.0700	  630.00	  626.87	-1958.11	  488.48
     19.1700	  650.00	  626.21	-1937.44	  487.75
     19.2700	  624.00	  625.55	-1962.79	  487.03
     19.3700	  676.00	  624.91	-1910.14	  486.32
     19.4700	  590.00	  624.27	-1995.51	  485.62
     19.5700	  632.00	  623.65	-1952.88	  484.92
     19.6700	  600.00	  623.03	-1984.27	  484.23
     19.7700	  653.00	  622.43	-1930.66	  483.55
     19.8700	  595.00	  621.83	-1988.07	  482.88
     19.9700	  557.00	  621.25	-2025.48	  482.21
     20.0700	  632.00	  620.68	-1949.91	  481.55
     20.1700	  586.00	  620.17	-1995.40	  480.90
     20.2700	  600.00	  619.62	-1980.85	  480.25
     20.3700	  565.00	  619.08	-2015.31	  479.61
     20.4700	  637.00	  618.55	-1942.78	  478.98
     20.5700	  595.00	  618.03	-1984.26	  478.35
     20.6700	  606.00	  617.52	-1972.76	  477.73
     20.7700	  617.00	  617.03	-1961.26	  477.12
     20.8700	  577.00	  616.55	-2000.78	  476.52
     20.9700	  601.00	  616.07	-1976.31	  475.92
     21.0700	  584.00	  615.61	-1992.85	  475.33
     21.1700	  600.00	  615.17	-1976.40	  474.74
     21.2700	  603.00	  614.73	-1972.97	  474.16
     21.3700	  611.00	  614.31	-1964.55	  473.59
     21.4700	  640.00	  613.91	-1935.14	  473.02
     21.5700	  642.00	  613.52	-1932.75	  472.46
     21.6700	  655.00	  613.14	-1919.37	  471.91
     21.7700	  599.00	  612.78	-1975.01	  471.37
     21.8700	  609.00	  612.43	-1964.66	  470.83
     21.9700	  601.00	  612.10	-1972.34	  470.29
     22.0700	  615.00	  611.79	-1958.02	  469.76
     22.1700	  573.00	  611.50	-1999.73	  469.24
     22.2700	  616.00	  611.22	-1956.46	  468.73
     22.3700	  611.00	  610.97	-1961.20	  468.22
     22.4700	  660.00	  610.94	-1912.17	  467.71
     22.5700	  623.00	  610.73	-1948.97	  467.22
     22.6700	  613.00	  610.55	-1958.79	  466.73
     22.7700	  643.00	  610.40	-1928.64	  466.24
     22.8700	  642.00	  610.28	-1929.51	  465.76
     22.9700	  592.00	  610.19	-1979.43	  465.29
     23.0700	  600.00	  610.14	-1971.38	  464.82
     23.1700	  579.00	  610.13	-1992.37	  464.36
     23.2700	  671.00	  610.17	-1900.40	  463.90
     23.3700	  573.00	  610.26	-1998.50	  463.45
     23.4700	  608.00	  610.42	-1963.65	  463.01
     23.5700	  654.00	  610.65	-1917.89	  462.57
     23.6700	  640.00	  610.98	-1932.21	  462.14
     23.7700	  681.00	  611.43	-1891.66	  461.71
     23.8700	  633.00	  612.04	-1940.28	  461.29
     23.9700	  637.00	  612.90	-1937.13	  460.87
     24.0700	  615.00	  614.11	-1960.34	  460.46
     24.1700	  619.00	  615.86	-1958.09	  460.05
     24.2700	  621.00	  618.44	-1958.68	  459.65
     24.3700	  637.00	  622.20	-1946.43	  459.26
     24.4700	  652.00	  627.65	-1936.89	  458.87
     24.5700	  654.00	  635.05	-1942.28	  458.48
     24.6700	  676.00	  644.35	-1929.58	  458.10
     24.7700	  650.00	  654.92	-1966.15	  457.73
     24.8700	  693.00	  665.17	-1933.41	  457.36
     24.9700	  688.00	  672.31	-1945.55	  456.99
     25.0700	  757.00	  672.90	-1877.14	  456.64
     25.1700	  709.00	  665.95	-1918.18	  456.28
     25.2700	  666.00	  655.08	-1950.31	  455.93
     25.3700	  672.00	  644.83	-1934.07	  455.59
     25.4700	  616.00	  637.16	-1982.39	  455.25
     25.5700	  675.00	  632.36	-1918.59	  454.92
     25.6700	  646.00	  629.92	-1945.16	  454.59
     25.7700	  618.00	  629.21	-1972.44	  454.26
     25.8700	  619.00	  629.66	-1971.89	  453.94
     25.9700	  645.00	  630.93	-1947.16	  453.63
     26.0700	  607.00	  632.83	-1987.07	  453.32
     26.1700	  645.00	  635.31	-1951.54	  453.01
     26.2700	  628.00	  638.35	-1971.58	  452.71
     26.3700	  642.00	  642.01	-1961.24	  452.42
     26.4700	  625.00	  646.36	-1982.60	  452.13
     26.5700	  626.00	  651.53	-1986.76	  451.84
     26.6700	  614.00	  657.65	-2004.88	  451.56
     26.7700	  686.00	  664.94	-1940.17	  451.28
     26.8700	  678.00	  673.67	-1956.90	  451.00
     26.9700	  670.00	  684.20	-1975.43	  450.74
     27.0700	  668.00	  697.04	-1990.28	  450.47
     27.1700	  725.00	  712.90	-1949.13	  450.21
     27.2700	  722.00	  732.80	-1972.03	  449.95
     27.3700	  717.00	  758.41	-2002.64	  449.70
     27.4700	  741.00	  792.83	-2013.06	  449.45
     27.5700	  778.00	  842.72	-2025.96	  449.21
     27.6700	  852.00	  922.69	-2031.92	  448.97
     27.7700	  909.00	 1062.31	-2114.54	  448.74
     27.8700	 1058.00	 1314.21	-2217.44	  448.51
     27.9700	 1266.00	 1757.60	-2452.83	  448.28
     28.0700	 1963.00	 2484.43	-2482.66	  448.06
     28.1700	 3099.00	 3553.21	-2415.44	  447.84
     28.2700	 5083.00	 4899.95	-1778.19	  447.62
     28.3700	 7064.00	 6225.84	-1123.07	  447.41
     28.4700	 7825.00	 6971.53	-1107.76	  447.20
     28.5700	 7223.00	 6613.29	-1351.53	  447.00
     28.6700	 5491.00	 5401.69	-1871.93	  446.80
     28.7700	 3901.00	 4221.14	-2281.38	  446.61
     28.8700	 3245.00	 3608.81	-2325.04	  446.41
     28.9700	 3655.00	 3588.17	-1894.41	  446.23
     29.0700	 4212.00	 3869.87	-1619.10	  446.04
     29.1700	 4466.00	 4036.18	-1531.41	  445.86
     29.2700	 3816.00	 3742.35	-1887.59	  445.68
     29.3700	 2974.00	 3025.61	-2012.84	  445.51
     29.4700	 2123.00	 2238.66	-2076.89	  445.34
     29.5700	 1463.00	 1622.52	-2120.75	  445.18
     29.6700	 1156.00	 1226.77	-2032.00	  445.01
     29.7700	  951.00	 1003.86	-2014.10	  444.85
     29.8700	  902.00	  884.79	-1944.02	  444.70
     29.9700	  813.00	  818.04	-1966.28	  444.55
     30.0700	  762.00	  775.99	-1975.22	  444.40
     30.1700	  757.00	  746.56	-1950.80	  444.25
     30.2700	  716.00	  724.89	-1970.13	  444.11
     30.3700	  750.00	  708.98	-1920.21	  443.97
     30.4700	  725.00	  698.19	-1934.42	  443.83
     30.5700	  684.00	  692.88	-1970.11	  443.70
     30.6700	  678.00	  694.25	-1977.49	  443.57
     30.7700	  702.00	  703.93	-1963.17	  443.45
     30.8700	  762.00	  722.63	-1921.86	  443.33
     30.9700	  769.00	  748.30	-1940.53	  443.21
     31.0700	  773.00	  774.57	-1962.81	  443.09
     31.1700	  775.00	  790.26	-1976.49	  442.98
     31.2700	  808.00	  783.11	-1936.35	  442.87
     31.3700	  780.00	  752.43	-1933.67	  442.76
     31.4700	  761.00	  712.91	-1913.14	  442.65
     31.5700	  655.00	  678.09	-1984.32	  442.55
     31.6700	  662.00	  652.85	-1952.09	  442.46
     31.7700	  663.00	  636.67	-1934.90	  442.36
     31.8700	  632.00	  626.93	-1956.16	  442.27
     31.9700	  678.00	  621.01	-1904.24	  442.18
     32.0700	  682.00	  617.14	-1896.38	  442.09
     32.1700	  662.00	  614.40	-1913.63	  442.01
     32.2700	  682.00	  612.34	-1891.57	  441.93
     32.3700	  625.00	  610.78	-1947.02	  441.85
     32.4700	  625.00	  609.64	-1945.87	  441.77
     32.5700	  606.00	  608.87	-1964.10	  441.70
     32.6700	  633.00	  608.45	-1936.68	  441.63
     32.7700	  628.00	  608.40	-1941.63	  441.56
     32.8700	  613.00	  608.77	-1957.01	  441.50
     32.9700	  600.00	  609.57	-1970.80	  441.43
     33.0700	  651.00	  610.91	-1921.15	  441.37
     33.1700	  652.00	  612.96	-1922.19	  441.32
     33.2700	  612.00	  615.98	-1965.22	  441.26
     33.3700	  647.00	  620.52	-1934.75	  441.21
     33.4700	  677.00	  627.62	-1911.85	  441.16
     33.5700	  640.00	  639.30	-1960.53	  441.11
     33.6700	  654.00	  659.12	-1966.35	  441.07
     33.7700	  732.00	  692.43	-1921.66	  441.02
     33.8700	  693.00	  745.59	-2013.83	  440.98
     33.9700	  863.00	  823.04	-1921.27	  440.94
     34.0700	  978.00	  922.04	-1905.27	  440.91
     34.1700	 1094.00	 1027.40	-1894.63	  440.87
     34.2700	 1176.00	 1109.24	-1894.47	  440.84
     34.3700	 1218.00	 1129.51	-1872.74	  440.81
     34.4700	 1197.00	 1070.69	-1834.93	  440.79
     34.5700	 1001.00	  962.52	-1922.76	  440.76
     34.6700	  867.00	  850.74	-1944.97	  440.74
     34.7700	  749.00	  760.69	-1972.93	  440.72
     34.8700	  747.00	  698.22	-1912.46	  440.70
     34.9700	  694.00	  659.19	-1926.43	  440.68
     35.0700	  666.00	  636.26	-1931.49	  440.67
     35.1700	  657.00	  622.82	-1927.06	  440.66
     35.2700	  652.00	  614.49	-1923.72	  440.65
     35.3700	  672.00	  608.84	-1898.07	  440.64
     35.4700	  649.00	  604.70	-1916.94	  440.63
     35.5700	  598.00	  601.52	-1964.75	  440.63
     35.6700	  622.00	  599.01	-1938.24	  440.63
     35.7700	  641.00	  596.99	-1917.22	  440.63
     35.8700	  561.00	  595.36	-1995.59	  440.63
     35.9700	  577.00	  594.03	-1978.26	  440.63
     36.0700	  594.00	  592.95	-1960.19	  440.64
     36.1700	  575.00	  592.08	-1978.31	  440.64
     36.2700	  581.00	  591.39	-1971.62	  440.65
     36.3700	  585.00	  590.86	-1967.09	  440.66
     36.4700	  632.00	  590.48	-1919.71	  440.67
     36.5700	  599.00	  590.24	-1952.47	  440.69
     36.6700	  610.00	  590.14	-1941.37	  440.70
     36.7700	  574.00	  590.19	-1977.42	  440.72
     36.8700	  619.00	  590.41	-1932.64	  440.74
     36.9700	  589.00	  590.83	-1963.07	  440.76
     37.0700	  612.00	  591.71	-1940.94	  440.78
     37.1700	  591.00	  593.29	-1963.52	  440.80
     37.2700	  575.00	  594.83	-1981.06	  440.83
     37.3700	  616.00	  597.16	-1942.39	  440.85
     37.4700	  606.00	  600.75	-1955.99	  440.88
     37.5700	  617.00	  606.34	-1950.58	  440.91
     37.6700	  634.00	  615.14	-1942.38	  440.94
     37.7700	  629.00	  628.59	-1960.83	  440.97
     37.8700	  656.00	  648.10	-1953.33	  441.01
     37.9700	  656.00	  674.22	-1979.46	  441.04
     38.0700	  690.00	  705.48	-1976.71	  441.08
     38.1700	  750.00	  735.67	-1946.91	  441.12
     38.2700	  743.00	  760.34	-1978.57	  441.16
     38.3700	  686.00	  767.51	-2042.75	  441.20
     38.4700	  733.00	  751.61	-1979.85	  441.24
     38.5700	  700.00	  719.28	-1980.51	  441.28
     38.6700	  676.00	  683.23	-1968.47	  441.33
     38.7700	  602.00	  652.05	-2011.28	  441.37
     38.8700	  612.00	  628.73	-1977.97	  441.42
     38.9700	  620.00	  613.02	-1954.25	  441.47
     39.0700	  571.00	  603.17	-1993.40	  441.51
     39.1700	  625.00	  597.21	-1933.44	  441.56
     39.2700	  598.00	  593.55	-1956.78	  441.62
     39.3700	  553.00	  591.18	-1999.41	  441.67
     39.4700	  580.00	  589.52	-1970.75	  441.72
     39.5700	  603.00	  587.28	-1945.51	  441.78
     39.6700	  617.00	  586.35	-1930.58	  441.83
     39.7700	  600.00	  585.62	-1946.85	  441.89
     39.8700	  596.00	  585.05	-1950.28	  441.95
     39.9700	  630.00	  584.60	-1915.83	  442.00
     40.0700	  581.00	  584.25	-1964.48	  442.06
     40.1700	  571.00	  583.97	-1974.21	  442.12
     40.2700	  604.00	  583.77	-1941.00	  442.19
     40.3700	  644.00	  583.62	-1900.85	  442.25
     40.4700	  613.00	  583.52	-1931.75	  442.31
     40.5700	  590.00	  583.46	-1954.70	  442.38
     40.6700	  596.00	  583.45	-1948.69	  442.44
     40.7700	  539.00	  584.01	-2006.25	  442.51
     40.8700	  580.00	  584.09	-1965.32	  442.57
     40.9700	  596.00	  584.20	-1949.43	  442.64
     41.0700	  568.00	  584.36	-1977.59	  442.71
     41.1700	  608.00	  584.55	-1937.79	  442.78
     41.2700	  591.00	  584.80	-1955.03	  442.85
     41.3700	  624.00	  585.16	-1922.39	  442.92
     41.4700	  586.00	  585.53	-1960.76	  442.99
     41.5700	  574.00	  585.98	-1973.21	  443.06
     41.6700	  543.00	  586.52	-2004.75	  443.13
     41.7700	  573.00	  587.19	-1975.43	  443.21
     41.8700	  559.00	  588.04	-1990.28	  443.28
     41.9700	  571.00	  589.16	-1979.39	  443.36
     42.0700	  626.00	  590.71	-1925.94	  443.43
     42.1700	  578.00	  593.00	-1976.24	  443.51
     42.2700	  570.00	  596.56	-1987.80	  443.58
     42.3700	  617.00	  602.18	-1946.42	  443.66
     42.4700	  574.00	  610.80	-1998.04	  443.74
     42.5700	  587.00	  623.49	-1997.73	  443.82
     42.6700	  604.00	  640.61	-1997.84	  443.89
     42.7700	  609.00	  661.32	-2013.55	  443.97
     42.8700	  669.00	  682.72	-1974.95	  444.05
     42.9700	  653.00	  699.41	-2007.65	  444.13
     43.0700	  633.00	  704.96	-2033.20	  444.21
     43.1700	  669.00	  696.40	-1988.63	  444.29
     43.2700	  671.00	  677.63	-1967.87	  444.37
     43.3700	  675.00	  655.76	-1942.00	  444.46
     43.4700	  623.00	  635.96	-1974.19	  444.54
     43.5700	  637.00	  620.34	-1944.57	  444.62
     43.6700	  584.00	  609.17	-1986.40	  444.70
     43.7700	  633.00	  601.81	-1930.05	  444.79
     43.8700	  606.00	  597.23	-1952.46	  444.87
     43.9700	  585.00	  594.63	-1970.86	  444.95
     44.0700	  572.00	  592.90	-1982.14	  445.04
     44.1700	  592.00	  591.79	-1961.02	  445.12
     44.2700	  580.00	  591.03	-1972.27	  445.21
     44.3700	  598.00	  590.50	-1953.74	  445.29
     44.4700	  569.00	  590.13	-1982.36	  445.38
     44.5700	  590.00	  589.86	-1961.10	  445.46
     44.6700	  578.00	  589.69	-1972.92	  445.55
     44.7700	  590.00	  589.60	-1960.83	  445.63
     44.8700	  616.00	  589.56	-1934.79	  445.72
     44.9700	  628.00	  589.58	-1922.82	  445.81
     45.0700	  580.00	  589.88	-1971.11	  445.89
     45.1700	  629.00	  589.97	-1922.21	  445.98
     45.2700	  587.00	  590.10	-1964.34	  446.06
     45.3700	  604.00	  590.27	-1947.50	  446.15
     45.4700	  559.00	  590.47	-1992.70	  446.24
     45.5700	  674.00	  590.69	-1877.92	  446.32
     45.6700	  577.00	  590.95	-1975.18	  446.41
     45.7700	  627.00	  591.32	-1925.55	  446.50
     45.8700	  609.00	  591.64	-1943.87	  446.59
     45.9700	  591.00	  591.99	-1962.22	  446.67
     46.0700	  607.00	  592.37	-1946.61	  446.76
     46.1700	  572.00	  592.80	-1982.03	  446.85
     46.2700	  571.00	  593.26	-1983.49	  446.93
     46.3700	  573.00	  593.77	-1982.00	  447.02
     46.4700	  578.00	  594.14	-1977.37	  447.11
     46.5700	  603.00	  594.76	-1953.00	  447.19
     46.6700	  589.00	  595.59	-1967.83	  447.28
     46.7700	  585.00	  596.37	-1972.61	  447.37
     46.8700	  582.00	  597.26	-1976.49	  447.45
     46.9700	  630.00	  598.27	-1929.51	  447.54
     47.0700	  651.00	  599.47	-1909.70	  447.63
     47.1700	  577.00	  600.92	-1985.16	  447.71
     47.2700	  642.00	  602.79	-1922.02	  447.80
     47.3700	  604.00	  605.34	-1962.58	  447.89
     47.4700	  592.00	  608.95	-1978.18	  447.97
     47.5700	  598.00	  614.19	-1977.43	  448.06
     47.6700	  629.00	  621.74	-1953.97	  448.14
     47.7700	  617.00	  632.19	-1976.42	  448.23
     47.8700	  660.00	  645.79	-1947.03	  448.31
     47.9700	  646.00	  662.08	-1977.32	  448.40
     48.0700	  643.00	  679.39	-1997.62	  448.48
     48.1700	  662.00	  694.49	-1993.72	  448.57
     48.2700	  670.00	  703.09	-1994.33	  448.65
     48.3700	  704.00	  702.20	-1959.43	  448.74
     48.4700	  691.00	  692.84	-1963.08	  448.82
     48.5700	  677.00	  679.29	-1963.52	  448.90
     48.6700	  642.00	  666.11	-1985.34	  448.99
     48.7700	  584.00	  654.92	-2032.16	  449.07
     48.8700	  603.00	  647.19	-2005.42	  449.15
     48.9700	  662.00	  643.03	-1942.26	  449.24
     49.0700	  608.00	  642.10	-1995.33	  449.32
     49.1700	  632.00	  643.90	-1973.13	  449.40
     49.2700	  654.00	  648.08	-1955.31	  449.48
     49.3700	  672.00	  654.59	-1943.83	  449.56
     49.4700	  630.00	  663.96	-1995.19	  449.64
     49.5700	  643.00	  677.77	-1996.00	  449.72
     49.6700	  620.00	  699.90	-2041.14	  449.80
     49.7700	  719.00	  738.57	-1980.80	  449.88
     49.8700	  828.00	  809.02	-1942.26	  449.96
     49.9700	  962.00	  935.07	-1934.31	  450.04
     50.0700	 1168.00	 1145.94	-1939.18	  450.12
     50.1700	 1500.00	 1465.40	-1926.64	  450.19
     50.2700	 1969.00	 1892.85	-1885.08	  450.27
     50.3700	 2539.00	 2383.21	-1805.44	  450.35
     50.4700	 2949.00	 2835.01	-1847.24	  450.42
     50.5700	 3106.00	 3104.32	-1959.55	  450.50
     50.6700	 2971.00	 3074.63	-2064.86	  450.58
     50.7700	 2693.00	 2757.49	-2025.72	  450.65
     50.8700	 2159.00	 2286.28	-2088.52	  450.72
     50.9700	 1689.00	 1805.09	-2077.32	  450.80
     51.0700	 1342.00	 1403.92	-2023.15	  450.87
     51.1700	 1041.00	 1116.83	-2037.06	  450.94
     51.2700	  897.00	  936.64	-2000.87	  451.02
     51.3700	  827.00	  835.52	-1969.75	  451.09
     51.4700	  786.00	  782.67	-1957.90	  451.16
     51.5700	  819.00	  753.86	-1896.09	  451.23
     51.6700	  760.00	  734.44	-1935.67	  451.30
     51.7700	  699.00	  717.85	-1980.09	  451.37
     51.8700	  722.00	  702.77	-1942.01	  451.44
     51.9700	  672.00	  689.66	-1978.89	  451.51
     52.0700	  732.00	  679.01	-1908.24	  451.57
     52.1700	  710.00	  670.93	-1922.17	  451.64
     52.2700	  643.00	  665.11	-1983.34	  451.71
     52.3700	  654.00	  661.10	-1968.33	  451.77
     52.4700	  698.00	  658.52	-1921.76	  451.84
     52.5700	  695.00	  657.34	-1923.57	  451.90
     52.6700	  667.00	  657.75	-1951.98	  451.97
     52.7700	  719.00	  660.21	-1902.44	  452.03
     52.8700	  662.00	  665.48	-1964.71	  452.09
     52.9700	  688.00	  674.84	-1948.07	  452.15
     53.0700	  741.00	  690.28	-1910.51	  452.21
     53.1700	  706.00	  714.59	-1969.82	  452.27
     53.2700	  746.00	  751.11	-1966.34	  452.33
     53.3700	  789.00	  803.09	-1975.32	  452.39
     53.4700	  893.00	  872.55	-1940.78	  452.45
     53.5700	  993.00	  958.73	-1926.96	  452.51
     53.6700	 1078.00	 1056.45	-1939.68	  452.57
     53.7700	 1183.00	 1153.65	-1931.88	  452.62
     53.8700	 1291.00	 1230.92	-1901.15	  452.68
     53.9700	 1262.00	 1265.48	-1964.72	  452.73
     54.0700	 1259.00	 1244.41	-1946.64	  452.79
     54.1700	 1212.00	 1175.61	-1924.84	  452.84
     54.2700	 1059.00	 1081.31	-1983.55	  452.89
     54.3700	  979.00	  982.92	-1965.15	  452.94
     54.4700	  854.00	  894.11	-2001.35	  453.00
     54.5700	  800.00	  821.45	-1982.69	  453.05
     54.6700	  727.00	  766.47	-2000.70	  453.09
     54.7700	  692.00	  727.58	-1996.81	  453.14
     54.8700	  673.00	  701.64	-1989.87	  453.19
     54.9700	  728.00	  685.18	-1918.42	  453.24
     55.0700	  677.00	  675.20	-1959.43	  453.28
     55.1700	  679.00	  669.46	-1951.69	  453.33
     55.2700	  639.00	  666.50	-1988.73	  453.37
     55.3700	  710.00	  665.47	-1916.70	  453.42
     55.4700	  635.00	  665.91	-1992.14	  453.46
     55.5700	  678.00	  667.63	-1950.87	  453.50
     55.6700	  665.00	  670.61	-1966.84	  453.54
     55.7700	  666.00	  674.92	-1970.15	  453.58
     55.8700	  658.00	  680.80	-1984.03	  453.62
     55.9700	  676.00	  688.70	-1973.93	  453.66
     56.0700	  674.00	  699.50	-1986.73	  453.70
     56.1700	  719.00	  714.88	-1957.11	  453.74
     56.2700	  780.00	  737.94	-1919.18	  453.77
     56.3700	  758.00	  774.02	-1977.25	  453.81
     56.4700	  833.00	  831.38	-1959.62	  453.84
     56.5700	  863.00	  921.47	-2019.70	  453.88
     56.6700	 1093.00	 1057.60	-1925.84	  453.91
     56.7700	 1274.00	 1251.68	-1938.92	  453.94
     56.8700	 1535.00	 1509.16	-1935.39	  453.97
     56.9700	 1888.00	 1822.57	-1895.80	  454.00
     57.0700	 2211.00	 2165.53	-1915.76	  454.03
     57.1700	 2498.00	 2487.58	-1950.82	  454.06
     57.2700	 2783.00	 2715.83	-1894.07	  454.09
     57.3700	 2831.00	 2778.48	-1908.71	  454.11
     57.4700	 2555.00	 2651.97	-2058.20	  454.14
     57.5700	 2296.00	 2381.84	-2047.07	  454.16
     57.6700	 1976.00	 2046.06	-2031.29	  454.19
     57.7700	 1567.00	 1711.29	-2105.52	  454.21
     57.8700	 1367.00	 1418.93	-2013.17	  454.23
     57.9700	 1141.00	 1187.92	-2008.15	  454.25
     58.0700	 1000.00	 1020.52	-1981.75	  454.27
     58.1700	  920.00	  908.90	-1950.14	  454.29
     58.2700	  852.00	  841.35	-1950.59	  454.31
     58.3700	  788.00	  807.07	-1980.31	  454.33
     58.4700	  760.00	  798.89	-2000.12	  454.34
     58.5700	  784.00	  813.18	-1990.42	  454.36
     58.6700	  823.00	  849.32	-1987.56	  454.37
     58.7700	  949.00	  907.15	-1919.38	  454.39
     58.8700	 1013.00	  984.70	-1932.93	  454.40
     58.9700	 1019.00	 1076.37	-2018.60	  454.41
     59.0700	 1148.00	 1171.66	-1984.89	  454.42
     59.1700	 1233.00	 1256.47	-1984.70	  454.43
     59.2700	 1395.00	 1319.09	-1885.32	  454.44
     59.3700	 1327.00	 1355.72	-1989.95	  454.45
     59.4700	 1341.00	 1367.29	-1987.52	  454.45
     59.5700	 1325.00	 1353.77	-1990.01	  454.46
     59.6700	 1301.00	 1317.54	-1977.77	  454.46
     59.7700	 1261.00	 1268.86	-1969.09	  454.47
     59.8700	 1290.00	 1223.09	-1894.32	  454.47
     59.9700	 1241.00	 1193.12	-1913.35	  454.47
     60.0700	 1235.00	 1187.14	-1913.38	  454.47
     60.1700	 1288.00	 1210.45	-1883.69	  454.47
     60.2700	 1426.00	 1266.36	-1801.60	  454.47
     60.3700	 1433.00	 1353.32	-1881.55	  454.47
     60.4700	 1558.00	 1460.86	-1864.10	  454.46
     60.5700	 1549.00	 1567.68	-1979.91	  454.46
     60.6700	 1681.00	 1643.05	-1923.28	  454.45
     60.7700	 1587.00	 1656.31	-2030.54	  454.45
     60.8700	 1639.00	 1594.60	-1916.83	  454.44
     60.9700	 1462.00	 1472.69	-1971.92	  454.43
     61.0700	 1310.00	 1320.81	-1972.04	  454.42
     61.1700	 1050.00	 1167.47	-2078.70	  454.41
     61.2700	  980.00	 1032.12	-2013.35	  454.40
     61.3700	  847.00	  925.10	-2039.33	  454.39
     61.4700	  780.00	  849.41	-2030.64	  454.37
     61.5700	  785.00	  803.50	-1979.73	  454.36
     61.6700	  780.00	  784.34	-1965.58	  454.34
     61.7700	  817.00	  789.95	-1934.18	  454.33
     61.8700	  881.00	  820.66	-1900.89	  454.31
     61.9700	  933.00	  879.01	-1907.24	  454.29
     62.0700	  993.00	  968.10	-1936.34	  454.27
     62.1700	 1171.00	 1089.12	-1879.35	  454.25
     62.2700	 1280.00	 1238.39	-1919.63	  454.23
     62.3700	 1451.00	 1404.79	-1915.03	  454.21
     62.4700	 1562.00	 1568.03	-1967.27	  454.18
     62.5700	 1786.00	 1698.50	-1873.73	  454.16
     62.6700	 1617.00	 1763.24	-2107.48	  454.13
     62.7700	 1735.00	 1741.73	-1967.97	  454.11
     62.8700	 1606.00	 1640.52	-1995.76	  454.08
     62.9700	 1370.00	 1488.38	-2079.62	  454.05
     63.0700	 1244.00	 1318.19	-2035.42	  454.02
     63.1700	 1160.00	 1155.32	-1956.55	  453.99
     63.2700	  967.00	 1015.36	-2009.59	  453.96
     63.3700	  917.00	  905.21	-1949.44	  453.92
     63.4700	  794.00	  824.99	-1992.22	  453.89
     63.5700	  772.00	  770.71	-1959.94	  453.86
     63.6700	  791.00	  736.52	-1906.75	  453.82
     63.7700	  719.00	  716.85	-1959.09	  453.78
     63.8700	  722.00	  707.41	-1946.65	  453.75
     63.9700	  674.00	  705.61	-1992.84	  453.71
     64.0700	  723.00	  710.70	-1948.93	  453.67
     64.1700	  724.00	  723.33	-1960.57	  453.63
     64.2700	  814.00	  745.04	-1892.28	  453.58
     64.3700	  776.00	  779.75	-1964.98	  453.54
     64.4700	  852.00	  830.34	-1939.57	  453.50
     64.5700	  885.00	  899.86	-1976.09	  453.45
     64.6700	 1011.00	  989.88	-1940.11	  453.41
     64.7700	 1152.00	 1099.15	-1908.39	  453.36
     64.8700	 1288.00	 1222.26	-1895.50	  453.31
     64.9700	 1400.00	 1348.32	-1909.56	  453.26
     65.0700	 1452.00	 1461.27	-1970.51	  453.21
     65.1700	 1526.00	 1542.62	-1977.85	  453.16
     65.2700	 1630.00	 1576.72	-1907.95	  453.11
     65.3700	 1548.00	 1556.35	-1969.58	  453.05
     65.4700	 1413.00	 1485.85	-2034.08	  453.00
     65.5700	 1275.00	 1381.00	-2067.24	  452.95
     65.6700	 1195.00	 1261.56	-2027.79	  452.89
     65.7700	 1072.00	 1143.42	-2032.65	  452.83
     65.8700	 1025.00	 1037.03	-1973.26	  452.77
     65.9700	  877.00	  947.24	-2031.47	  452.71
     66.0700	  895.00	  875.08	-1941.31	  452.65
     66.1700	  814.00	  819.38	-1966.61	  452.59
     66.2700	  728.00	  777.81	-2011.05	  452.53
     66.3700	  704.00	  747.70	-2004.94	  452.47
     66.4700	  675.00	  726.39	-2012.62	  452.40
     66.5700	  690.00	  711.60	-1982.83	  452.34
     66.6700	  695.00	  701.68	-1967.91	  452.27
     66.7700	  654.00	  695.48	-2002.71	  452.21
     66.8700	  626.00	  692.31	-2027.54	  452.14
     66.9700	  677.00	  691.82	-1976.05	  452.07
     67.0700	  682.00	  693.95	-1973.19	  452.00
     67.1700	  662.00	  699.11	-1998.34	  451.93
     67.2700	  699.00	  707.98	-1970.21	  451.86
     67.3700	  754.00	  722.27	-1929.51	  451.78
     67.4700	  761.00	  744.82	-1945.05	  451.71
     67.5700	  820.00	  779.49	-1920.72	  451.63
     67.6700	  818.00	  831.98	-1975.21	  451.56
     67.7700	  918.00	  909.10	-1952.34	  451.48
     67.8700	  994.00	 1018.11	-1985.34	  451.40
     67.9700	 1154.00	 1165.09	-1972.32	  451.32
     68.0700	 1388.00	 1352.82	-1926.05	  451.24
     68.1700	 1609.00	 1578.55	-1930.79	  451.16
     68.2700	 1906.00	 1831.82	-1887.05	  451.08
     68.3700	 2035.00	 2092.63	-2018.86	  451.00
     68.4700	 2397.00	 2330.32	-1894.56	  450.92
     68.5700	 2576.00	 2505.53	-1890.77	  450.83
     68.6700	 2615.00	 2579.75	-1925.98	  450.74
     68.7700	 2519.00	 2533.66	-1975.89	  450.66
     68.8700	 2401.00	 2379.34	-1939.57	  450.57
     68.9700	 2184.00	 2152.49	-1929.72	  450.48
     69.0700	 1927.00	 1893.59	-1927.82	  450.39
     69.1700	 1663.00	 1635.83	-1934.07	  450.30
     69.2700	 1410.00	 1401.71	-1952.94	  450.21
     69.3700	 1227.00	 1203.85	-1938.09	  450.12
     69.4700	 1084.00	 1046.67	-1923.91	  450.03
     69.5700	  941.00	  928.47	-1948.70	  449.93
     69.6700	  867.00	  843.73	-1937.96	  449.84
     69.7700	  787.00	  785.30	-1959.53	  449.74
     69.8700	  841.00	  746.11	-1866.35	  449.65
     69.9700	  781.00	  720.20	-1900.43	  449.55
     70.0700	  749.00	  703.03	-1915.26	  449.45
     70.1700	  752.00	  691.48	-1900.71	  449.35
     70.2700	  689.00	  683.53	-1955.77	  449.25
     70.3700	  700.00	  677.98	-1939.21	  449.15
     70.4700	  715.00	  674.15	-1920.38	  449.05
     70.5700	  688.00	  671.64	-1944.87	  448.95
     70.6700	  681.00	  670.29	-1950.52	  448.84
     70.7700	  662.00	  670.05	-1969.28	  448.74
     70.8700	  726.00	  671.00	-1906.23	  448.63
     70.9700	  606.00	  673.36	-2028.59	  448.53
     71.0700	  706.00	  677.55	-1932.78	  448.42
     71.1700	  715.00	  684.14	-1930.37	  448.31
     71.2700	  717.00	  694.74	-1938.98	  448.20
     71.3700	  721.00	  711.01	-1951.24	  448.09
     71.4700	  713.00	  735.55	-1983.78	  447.98
     71.5700	  855.00	  771.79	-1878.02	  447.87
     71.6700	  837.00	  823.81	-1948.04	  447.76
     71.7700	  917.00	  895.81	-1940.05	  447.64
     71.8700	  962.00	  991.49	-1990.72	  447.53
     71.9700	 1106.00	 1112.85	-1968.08	  447.42
     72.0700	 1262.00	 1259.13	-1958.36	  447.30
     72.1700	 1474.00	 1425.63	-1912.86	  447.18
     72.2700	 1581.00	 1602.74	-1982.98	  447.07
     72.3700	 1730.00	 1775.23	-2006.46	  446.95
     72.4700	 1911.00	 1922.22	-1972.45	  446.83
     72.5700	 1871.00	 2019.68	-2109.92	  446.71
     72.6700	 1941.00	 2047.49	-2067.72	  446.59
     72.7700	 1932.00	 1999.09	-2028.32	  446.47
     72.8700	 1835.00	 1885.48	-2011.71	  446.35
     72.9700	 1681.00	 1729.59	-2009.83	  446.22
     73.0700	 1467.00	 1553.65	-2047.88	  446.10
     73.1700	 1345.00	 1377.70	-1993.93	  445.98
     73.2700	 1237.00	 1215.35	-1939.58	  445.85
     73.3700	 1049.00	 1074.72	-1986.95	  445.73
     73.4700	 1005.00	  959.31	-1915.54	  445.60
     73.5700	  828.00	  868.97	-2002.20	  445.47
     73.6700	  833.00	  801.14	-1929.37	  445.34
     73.7700	  780.00	  752.00	-1933.24	  445.21
     73.8700	  766.00	  717.39	-1912.63	  445.09
     73.9700	  725.00	  693.50	-1929.74	  444.95
     74.0700	  675.00	  676.68	-1962.91	  444.82
     74.1700	  719.00	  665.66	-1907.90	  444.69
     74.2700	  666.00	  658.34	-1953.58	  444.56
     74.3700	  626.00	  653.69	-1988.93	  444.43
     74.4700	  626.00	  651.08	-1986.32	  444.29
     74.5700	  665.00	  650.11	-1946.34	  444.16
     74.6700	  649.00	  650.48	-1962.71	  444.02
     74.7700	  645.00	  651.91	-1968.15	  443.89
     74.8700	  652.00	  654.09	-1963.32	  443.75
     74.9700	  664.00	  656.55	-1953.79	  443.61
     75.0700	  636.00	  658.93	-1984.16	  443.48
     75.1700	  720.00	  660.58	-1901.82	  443.34
     75.2700	  703.00	  661.03	-1919.26	  443.20
     75.3700	  734.00	  660.05	-1887.28	  443.06
     75.4700	  725.00	  657.83	-1894.06	  442.92
     75.5700	  696.00	  654.94	-1920.17	  442.78
     75.6700	  671.00	  652.13	-1942.36	  442.63
     75.7700	  707.00	  650.22	-1904.45	  442.49
     75.8700	  665.00	  649.97	-1946.20	  442.35
     75.9700	  690.00	  652.41	-1923.65	  442.20
     76.0700	  703.00	  658.42	-1916.65	  442.06
     76.1700	  688.00	  668.95	-1942.18	  441.92
     76.2700	  675.00	  684.96	-1971.19	  441.77
     76.3700	  719.00	  707.22	-1949.46	  441.62
     76.4700	  743.00	  736.19	-1954.43	  441.48
     76.5700	  748.00	  771.76	-1985.00	  441.33
     76.6700	  792.00	  813.09	-1982.32	  441.18
     76.7700	  856.00	  858.40	-1963.63	  441.03
     76.8700	  869.00	  904.81	-1997.05	  440.88
     76.9700	  953.00	  948.29	-1956.53	  440.73
     77.0700	 1010.00	  983.73	-1934.96	  440.58
     77.1700	 1025.00	 1005.72	-1941.95	  440.43
     77.2700	  983.00	 1010.15	-1988.38	  440.28
     77.3700	  991.00	  996.02	-1966.25	  440.13
     77.4700	  970.00	  965.99	-1957.22	  439.98
     77.5700	  927.00	  925.05	-1959.28	  439.83
     77.6700	  869.00	  878.37	-1970.61	  439.67
     77.7700	  831.00	  830.94	-1961.17	  439.52
     77.8700	  784.00	  785.99	-1963.22	  439.36
     77.9700	  757.00	  745.77	-1950.01	  439.21
     78.0700	  727.00	  711.53	-1945.76	  439.05
     78.1700	  658.00	  683.62	-1986.85	  438.90
     78.2700	  677.00	  661.75	-1945.98	  438.74
     78.3700	  634.00	  645.21	-1972.44	  438.59
     78.4700	  645.00	  633.08	-1949.31	  438.43
     78.5700	  647.00	  624.41	-1938.64	  438.27
     78.6700	  588.00	  618.31	-1991.54	  438.11
     78.7700	  628.00	  614.07	-1947.30	  437.95
     78.8700	  638.00	  611.13	-1934.36	  437.79
     78.9700	  641.00	  609.05	-1929.29	  437.63
     79.0700	  617.00	  607.68	-1951.91	  437.48
     79.1700	  613.00	  606.78	-1955.01	  437.31
     79.2700	  639.00	  606.27	-1928.50	  437.15
     79.3700	  612.00	  606.10	-1955.33	  436.99
     79.4700	  610.00	  606.26	-1957.50	  436.83
     79.5700	  626.00	  606.77	-1942.01	  436.67
     79.6700	  616.00	  607.68	-1952.91	  436.51
     79.7700	  650.00	  609.04	-1920.28	  436.34
     79.8700	  559.00	  610.98	-2013.22	  436.18
     79.9700	  619.00	  613.68	-1955.91	  436.02
     80.0700	  618.00	  617.39	-1960.62	  435.85
     80.1700	  619.00	  622.54	-1964.78	  435.69
     80.2700	  653.00	  629.74	-1937.98	  435.53
     80.3700	  626.00	  639.87	-1975.11	  435.36
     80.4700	  619.00	  653.86	-1996.10	  435.20
     80.5700	  660.00	  673.66	-1974.89	  435.03
     80.6700	  711.00	  700.71	-1950.94	  434.87
     80.7700	  766.00	  736.79	-1932.03	  434.70
     80.8700	  864.00	  783.52	-1880.75	  434.53
     80.9700	  870.00	  841.99	-1933.22	  434.37
     81.0700	  939.00	  912.35	-1934.59	  434.20
     81.1700	 1031.00	  993.39	-1923.62	  434.03
     81.2700	 1141.00	 1082.18	-1902.41	  433.86
     81.3700	 1219.00	 1173.91	-1916.14	  433.70
     81.4700	 1344.00	 1261.94	-1879.17	  433.53
     81.5700	 1403.00	 1338.51	-1896.74	  433.36
     81.6700	 1394.00	 1396.10	-1963.34	  433.19
     81.7700	 1392.00	 1429.34	-1998.57	  433.02
     81.8700	 1417.00	 1436.03	-1980.27	  432.86
     81.9700	 1424.00	 1417.05	-1954.29	  432.69
     82.0700	 1317.00	 1375.64	-2019.87	  432.52
     82.1700	 1303.00	 1316.87	-1975.10	  432.35
     82.2700	 1229.00	 1246.85	-1979.08	  432.18
     82.3700	 1124.00	 1171.56	-2008.79	  432.01
     82.4700	 1058.00	 1096.06	-1999.29	  431.84
     82.5700	 1011.00	 1024.18	-1974.42	  431.67
     82.6700	  911.00	  958.61	-2008.85	  431.50
     82.7700	  905.00	  900.82	-1957.06	  431.33
     82.8700	  772.00	  851.14	-2040.37	  431.16
     82.9700	  772.00	  808.97	-1998.21	  430.99
     83.0700	  750.00	  773.26	-1984.49	  430.81
     83.1700	  743.00	  742.90	-1961.14	  430.64
     83.2700	  666.00	  717.09	-2012.32	  430.47
     83.3700	  684.00	  695.32	-1972.55	  430.30
     83.4700	  653.00	  677.32	-1985.56	  430.13
     83.5700	  709.00	  662.93	-1915.17	  429.96
     83.6700	  615.00	  652.04	-1998.27	  429.79
     83.7700	  645.00	  644.54	-1960.77	  429.61
     83.8700	  622.00	  640.28	-1979.51	  429.44
     83.9700	  600.00	  639.02	-2000.25	  429.27
     84.0700	  611.00	  640.40	-1990.63	  429.10
     84.1700	  627.00	  643.93	-1978.17	  428.93
     84.2700	  623.00	  648.86	-1987.10	  428.76
     84.3700	  659.00	  654.69	-1956.93	  428.58
     84.4700	  654.00	  660.42	-1967.65	  428.41
     84.5700	  683.00	  665.11	-1943.34	  428.24
     84.6700	  653.00	  667.78	-1976.01	  428.07
     84.7700	  668.00	  667.93	-1961.16	  427.90
     84.8700	  622.00	  665.24	-2004.47	  427.72
     84.9700	  643.00	  659.96	-1978.19	  427.55
     85.0700	  628.00	  652.72	-1985.96	  427.38
     85.1700	  642.00	  644.32	-1963.55	  427.21
     85.2700	  644.00	  635.51	-1952.74	  427.04
     85.3700	  592.00	  626.96	-1996.19	  426.86
     85.4700	  584.00	  619.18	-1996.42	  426.69
     85.5700	  566.00	  612.58	-2007.81	  426.52
     85.6700	  623.00	  607.40	-1945.63	  426.35
     85.7700	  626.00	  603.80	-1939.03	  426.18
     85.8700	  587.00	  601.86	-1976.09	  426.01
     85.9700	  582.00	  601.62	-1980.85	  425.84
     86.0700	  596.00	  603.06	-1968.30	  425.66
     86.1700	  626.00	  606.19	-1941.42	  425.49
     86.2700	  654.00	  610.95	-1918.18	  425.32
     86.3700	  639.00	  617.27	-1939.51	  425.15
     86.4700	  633.00	  625.03	-1953.27	  424.98
     86.5700	  652.00	  634.04	-1943.28	  424.81
     86.6700	  676.00	  644.03	-1929.26	  424.64
     86.7700	  666.00	  654.62	-1949.85	  424.47
     86.8700	  624.00	  665.38	-2002.61	  424.30
     86.9700	  591.00	  675.79	-2046.02	  424.13
     87.0700	  689.00	  685.34	-1957.57	  423.96
     87.1700	  673.00	  693.71	-1981.94	  423.79
     87.2700	  709.00	  700.81	-1953.05	  423.62
     87.3700	  724.00	  706.92	-1944.16	  423.45
     87.4700	  661.00	  712.50	-2012.73	  423.28
     87.5700	  702.00	  718.01	-1977.24	  423.12
     87.6700	  735.00	  723.74	-1949.97	  422.95
     87.7700	  698.00	  729.71	-1992.95	  422.78
     87.8700	  708.00	  735.66	-1988.89	  422.61
     87.9700	  695.00	  740.99	-2007.22	  422.45
     88.0700	  773.00	  744.86	-1933.09	  422.28
     88.1700	  698.00	  746.32	-2009.56	  422.11
     88.2700	  715.00	  744.60	-1990.83	  421.94
     88.3700	  672.00	  739.34	-2028.57	  421.78
     88.4700	  699.00	  730.75	-1992.98	  421.61
     88.5700	  725.00	  719.49	-1955.73	  421.45
     88.6700	  703.00	  706.50	-1964.73	  421.28
     88.7700	  699.00	  692.73	-1954.96	  421.12
     88.8700	  685.00	  678.63	-1954.86	  420.95
     88.9700	  702.00	  665.84	-1925.07	  420.79
     89.0700	  681.00	  654.52	-1934.75	  420.62
     89.1700	  684.00	  645.11	-1922.35	  420.46
     89.2700	  657.00	  637.88	-1942.12	  420.30
     89.3700	  618.00	  632.90	-1976.13	  420.13
     89.4700	  692.00	  630.08	-1899.32	  419.97
     89.5700	  630.00	  629.19	-1960.43	  419.81
     89.6700	  634.00	  629.88	-1957.11	  419.65
     89.7700	  690.00	  631.68	-1902.91	  419.49
     89.8700	  680.00	  634.05	-1915.28	  419.33
     89.9700	  665.00	  636.41	-1932.65	  419.17
     90.0700	  680.00	  638.18	-1919.41	  419.01
     90.1700	  660.00	  638.84	-1940.07	  418.85
     90.2700	  651.00	  638.03	-1948.27	  418.69
     90.3700	  682.00	  635.68	-1914.91	  418.53
     90.4700	  608.00	  631.91	-1985.15	  418.37
     90.5700	  647.00	  627.07	-1941.30	  418.21
     90.6700	  645.00	  621.55	-1937.78	  418.06
     90.7700	  618.00	  615.73	-1958.96	  417.90
     90.8700	  641.00	  609.96	-1930.19	  417.75
     90.9700	  609.00	  604.51	-1956.74	  417.59
     91.0700	  619.00	  599.58	-1941.81	  417.44
     91.1700	  550.00	  595.30	-2006.53	  417.28
     91.2700	  600.00	  591.74	-1952.97	  417.13
     91.3700	  617.00	  588.90	-1933.13	  416.97
     91.4700	  636.00	  586.76	-1911.99	  416.82
     91.5700	  593.00	  585.27	-1953.51	  416.67
     91.6700	  595.00	  584.38	-1950.61	  416.52
     91.7700	  613.00	  584.03	-1932.26	  416.37
     91.8700	  596.00	  584.18	-1949.42	  416.22
     91.9700	  638.00	  584.85	-1908.08	  416.07
     92.0700	  603.00	  586.05	-1944.28	  415.92
     92.1700	  577.00	  587.87	-1972.10	  415.77
     92.2700	  620.00	  590.41	-1931.64	  415.62
     92.3700	  595.00	  593.84	-1960.07	  415.48
     92.4700	  602.00	  598.34	-1957.58	  415.33
     92.5700	  622.00	  604.15	-1943.38	  415.18
     92.6700	  612.00	  611.50	-1960.73	  415.04
     92.7700	  625.00	  620.61	-1956.84	  414.90
     92.8700	  651.00	  631.69	-1941.93	  414.75
     92.9700	  641.00	  644.88	-1965.12	  414.61
     93.0700	  695.00	  660.24	-1926.47	  414.47
     93.1700	  665.00	  677.71	-1973.94	  414.33
     93.2700	  684.00	  697.10	-1974.34	  414.18
     93.3700	  646.00	  718.09	-2033.33	  414.04
     93.4700	  731.00	  740.18	-1970.41	  413.91
     93.5700	  717.00	  762.70	-2006.93	  413.77
     93.6700	  756.00	  784.86	-1990.09	  413.63
     93.7700	  783.00	  805.80	-1984.03	  413.49
     93.8700	  732.00	  824.72	-2053.95	  413.36
     93.9700	  823.00	  841.11	-1979.34	  413.22
     94.0700	  820.00	  854.90	-1996.13	  413.09
     94.1700	  822.00	  866.51	-2005.74	  412.95
     94.2700	  818.00	  876.66	-2019.90	  412.82
     94.3700	  843.00	  886.19	-2004.43	  412.69
     94.4700	  861.00	  895.51	-1995.74	  412.56
     94.5700	  914.00	  905.77	-1953.00	  412.43
     94.6700	  894.00	  917.00	-1984.23	  412.30
     94.7700	  932.00	  929.43	-1958.66	  412.17
     94.8700	  931.00	  943.24	-1973.47	  412.04
     94.9700	  959.00	  958.55	-1960.79	  411.91
     95.0700	  980.00	  975.32	-1956.55	  411.79
     95.1700	 1007.00	  993.15	-1947.39	  411.66
     95.2700	 1027.00	 1011.22	-1945.45	  411.54
     95.3700	  980.00	 1028.18	-2009.41	  411.42
     95.4700	 1084.00	 1042.32	-1919.55	  411.29
     95.5700	 1058.00	 1051.70	-1954.93	  411.17
     95.6700	 1061.00	 1054.46	-1954.69	  411.05
     95.7700	 1071.00	 1049.28	-1939.51	  410.93
     95.8700	 1034.00	 1035.70	-1962.94	  410.81
     95.9700	  991.00	 1014.34	-1984.58	  410.70
     96.0700	  955.00	  986.71	-1992.94	  410.58
     96.1700	  929.00	  954.87	-1987.11	  410.46
     96.2700	  910.00	  921.16	-1972.39	  410.35
     96.3700	  902.00	  887.88	-1947.12	  410.24
     96.4700	  875.00	  857.23	-1943.47	  410.12
     96.5700	  847.00	  831.16	-1945.39	  410.01
     96.6700	  843.00	  811.35	-1929.59	  409.90
     96.7700	  811.00	  799.23	-1949.47	  409.79
     96.8700	  835.00	  795.94	-1922.18	  409.68
     96.9700	  875.00	  802.35	-1888.59	  409.58
     97.0700	  874.00	  819.09	-1906.32	  409.47
     97.1700	  878.00	  846.52	-1929.76	  409.36
     97.2700	  907.00	  884.77	-1939.00	  409.26
     97.3700	  943.00	  933.61	-1951.84	  409.16
     97.4700	  954.00	  992.46	-1999.69	  409.05
     97.5700	 1050.00	 1060.30	-1971.53	  408.95
     97.6700	 1182.00	 1135.60	-1914.84	  408.85
     97.7700	 1191.00	 1216.24	-1986.47	  408.76
     97.8700	 1278.00	 1299.47	-1982.71	  408.66
     97.9700	 1357.00	 1381.90	-1986.14	  408.56
     98.0700	 1481.00	 1459.56	-1939.79	  408.47
     98.1700	 1503.00	 1528.01	-1986.24	  408.37
     98.2700	 1568.00	 1582.68	-1975.91	  408.28
     98.3700	 1591.00	 1619.46	-1989.69	  408.19
     98.4700	 1590.00	 1635.46	-2006.70	  408.10
     98.5700	 1602.00	 1629.68	-1988.92	  408.01
     98.6700	 1598.00	 1603.20	-1966.43	  407.92
     98.7700	 1525.00	 1558.83	-1995.07	  407.83
     98.8700	 1462.00	 1500.54	-1999.77	  407.75
     98.9700	 1482.00	 1432.72	-1911.95	  407.66
     99.0700	 1345.00	 1359.70	-1975.93	  407.58
     99.1700	 1258.00	 1285.47	-1988.71	  407.50
     99.2700	 1185.00	 1213.61	-1989.84	  407.42
     99.3700	 1141.00	 1147.14	-1967.37	  407.34
     99.4700	 1072.00	 1088.59	-1977.82	  407.26
     99.5700	 1019.00	 1040.00	-1982.23	  407.18
     99.6700	 1050.00	 1002.99	-1914.22	  407.11
     99.7700	  995.00	  978.81	-1945.04	  407.03
     99.8700	  960.00	  968.35	-1969.59	  406.96
     99.9700	  970.00	  972.19	-1963.42	  406.89
    100.0700	 1002.00	  990.58	-1949.81	  406.82
    100.1700	 1052.00	 1023.48	-1932.71	  406.75
    100.2700	 1103.00	 1070.57	-1928.81	  406.68
    100.3700	 1138.00	 1131.16	-1954.40	  406.62
    100.4700	 1294.00	 1204.19	-1871.42	  406.55
    100.5700	 1291.00	 1288.13	-1958.37	  406.49
    100.6700	 1373.00	 1381.03	-1969.26	  406.43
    100.7700	 1475.00	 1480.39	-1966.63	  406.37
    100.8700	 1627.00	 1583.08	-1917.31	  406.31
    100.9700	 1710.00	 1685.73	-1936.96	  406.25
    101.0700	 1777.00	 1784.39	-1968.62	  406.19
    101.1700	 1895.00	 1875.19	-1941.43	  406.14
    101.2700	 1926.00	 1954.68	-1989.91	  406.08
    101.3700	 1992.00	 2020.14	-1989.37	  406.03
    101.4700	 2022.00	 2069.82	-2009.05	  405.98
    101.5700	 2051.00	 2102.80	-2013.04	  405.93
    101.6700	 2156.00	 2118.68	-1923.91	  405.88
    101.7700	 2060.00	 2117.29	-2018.52	  405.84
    101.8700	 2103.00	 2098.72	-1956.96	  405.79
    101.9700	 2107.00	 2063.61	-1917.84	  405.75
    102.0700	 2059.00	 2013.43	-1915.66	  405.71
    102.1700	 2000.00	 1950.73	-1911.96	  405.67
    102.2700	 1949.00	 1878.97	-1891.20	  405.63
    102.3700	 1851.00	 1802.15	-1912.38	  405.59
    102.4700	 1765.00	 1724.23	-1920.47	  405.55
    102.5700	 1715.00	 1648.73	-1894.96	  405.52
    102.6700	 1651.00	 1578.37	-1888.60	  405.49
    102.7700	 1537.00	 1515.05	-1939.28	  405.45
    102.8700	 1450.00	 1459.85	-1971.09	  405.42
    102.9700	 1429.00	 1413.04	-1945.28	  405.40
    103.0700	 1471.00	 1374.19	-1864.42	  405.37
    103.1700	 1308.00	 1342.20	-1995.43	  405.34
    103.2700	 1319.00	 1315.47	-1957.70	  405.32
    103.3700	 1279.00	 1292.02	-1974.25	  405.30
    103.4700	 1255.00	 1269.65	-1975.89	  405.28
    103.5700	 1283.00	 1246.27	-1924.51	  405.26
    103.6700	 1241.00	 1220.14	-1940.38	  405.24
    103.7700	 1140.00	 1190.16	-2011.40	  405.23
    103.8700	 1140.00	 1155.98	-1977.21	  405.21
    103.9700	 1084.00	 1117.91	-1995.15	  405.20
    104.0700	 1107.00	 1076.78	-1931.01	  405.19
    104.1700	 1053.00	 1033.66	-1941.89	  405.18
    104.2700	  939.00	  989.69	-2011.92	  405.17
    104.3700	  961.00	  945.96	-1946.19	  405.17
    104.4700	  897.00	  903.46	-1967.70	  405.17
    104.5700	  827.00	  863.03	-1997.26	  405.16
    104.6700	  860.00	  825.32	-1926.55	  405.16
    104.7700	  846.00	  790.80	-1906.03	  405.16
    104.8700	  777.00	  759.78	-1944.02	  405.17
    104.9700	  753.00	  732.35	-1940.58	  405.17
    105.0700	  774.00	  708.62	-1895.85	  405.18
    105.1700	  781.00	  688.40	-1868.63	  405.19
    105.2700	  666.00	  671.46	-1966.70	  405.20
    105.3700	  697.00	  657.52	-1921.76	  405.21
    105.4700	  637.00	  646.26	-1970.49	  405.22
    105.5700	  623.00	  637.33	-1975.56	  405.24
    105.6700	  647.00	  630.43	-1944.66	  405.25
    105.7700	  628.00	  625.21	-1958.45	  405.27
    105.8700	  626.00	  621.53	-1956.76	  405.29
    105.9700	  662.00	  619.13	-1918.36	  405.31
    106.0700	  642.00	  617.86	-1937.09	  405.34
    106.1700	  647.00	  617.61	-1931.84	  405.36
    106.2700	  606.00	  618.32	-1973.55	  405.39
    106.3700	  608.00	  619.97	-1973.20	  405.42
    106.4700	  618.00	  622.56	-1965.80	  405.45
    106.5700	  603.00	  626.15	-1984.38	  405.49
    106.6700	  674.00	  630.77	-1918.01	  405.52
    106.7700	  624.00	  636.51	-1973.74	  405.56
    106.8700	  633.00	  643.42	-1971.65	  405.60
    106.9700	  657.00	  651.56	-1955.80	  405.64
    107.0700	  651.00	  660.97	-1971.20	  405.68
    107.1700	  624.00	  671.61	-2008.85	  405.72
    107.2700	  673.00	  683.44	-1971.67	  405.77
    107.3700	  653.00	  696.32	-2004.56	  405.82
    107.4700	  739.00	  710.06	-1932.30	  405.87
    107.5700	  717.00	  724.42	-1968.66	  405.92
    107.6700	  682.00	  739.07	-2018.31	  405.97
    107.7700	  731.00	  753.62	-1983.86	  406.03
    107.8700	  784.00	  767.65	-1944.88	  406.09
    107.9700	  795.00	  780.67	-1946.91	  406.15
    108.0700	  761.00	  792.22	-1992.46	  406.21
    108.1700	  750.00	  801.86	-2013.09	  406.27
    108.2700	  734.00	  809.25	-2036.48	  406.34
    108.3700	  798.00	  814.20	-1977.43	  406.40
    108.4700	  811.00	  816.79	-1967.02	  406.47
    108.5700	  745.00	  817.22	-2033.45	  406.55
    108.6700	  746.00	  815.90	-2031.13	  406.62
    108.7700	  770.00	  813.33	-2004.56	  406.69
    108.8700	  723.00	  810.03	-2048.26	  406.77
    108.9700	  735.00	  806.50	-2032.74	  406.85
    109.0700	  757.00	  803.17	-2007.41	  406.93
    109.1700	  824.00	  800.37	-1937.60	  407.02
    109.2700	  742.00	  798.31	-2017.54	  407.10
    109.3700	  804.00	  797.09	-1954.33	  407.19
    109.4700	  767.00	  796.70	-1990.93	  407.28
    109.5700	  753.00	  796.97	-2005.21	  407.37
    109.6700	  797.00	  797.67	-1961.91	  407.46
    109.7700	  723.00	  798.44	-2036.67	  407.56
    109.8700	  727.00	  798.87	-2033.10	  407.66
    109.9700	  733.00	  798.51	-2026.74	  407.75
    110.0700	  776.00	  796.95	-1982.18	  407.86
    110.1700	  751.00	  793.85	-2004.08	  407.96
    110.2700	  766.00	  789.05	-1984.28	  408.07
    110.3700	  797.00	  782.50	-1946.73	  408.17
    110.4700	  754.00	  774.31	-1981.55	  408.28
    110.5700	  762.00	  764.73	-1963.97	  408.40
    110.6700	  771.00	  754.07	-1944.30	  408.51
    110.7700	  718.00	  742.66	-1985.89	  408.63
    110.8700	  707.00	  730.85	-1985.08	  408.75
    110.9700	  698.00	  718.95	-1982.18	  408.87
    111.0700	  686.00	  707.26	-1982.49	  408.99
    111.1700	  650.00	  696.02	-2007.26	  409.11
    111.2700	  704.00	  685.45	-1942.68	  409.24
    111.3700	  679.00	  675.69	-1957.92	  409.37
    111.4700	  680.00	  666.87	-1948.11	  409.50
    111.5700	  643.00	  659.08	-1977.31	  409.64
    111.6700	  663.00	  652.35	-1950.58	  409.77
    111.7700	  690.00	  646.68	-1917.92	  409.91
    111.8700	  608.00	  642.07	-1995.30	  410.05
    111.9700	  628.00	  638.44	-1971.68	  410.19
    112.0700	  612.00	  635.75	-1984.98	  410.34
    112.1700	  618.00	  633.90	-1977.13	  410.48
    112.2700	  630.00	  632.81	-1964.04	  410.63
    112.3700	  609.00	  632.37	-1984.60	  410.78
    112.4700	  621.00	  632.49	-1972.72	  410.93
    112.5700	  643.00	  633.07	-1951.30	  411.09
    112.6700	  623.00	  634.03	-1972.26	  411.25
    112.7700	  617.00	  635.27	-1979.51	  411.41
    112.8700	  656.00	  636.74	-1941.98	  411.57
    112.9700	  668.00	  638.37	-1931.61	  411.73
    113.0700	  567.00	  640.12	-2034.36	  411.90
    113.1700	  609.00	  641.97	-1994.20	  412.07
    113.2700	  584.00	  643.89	-2021.13	  412.24
    113.3700	  596.00	  645.92	-2011.15	  412.41
    113.4700	  630.00	  648.06	-1979.29	  412.59
    113.5700	  622.00	  650.36	-1989.59	  412.77
    113.6700	  616.00	  652.87	-1998.11	  412.95
    113.7700	  642.00	  655.65	-1974.89	  413.13
    113.8700	  640.00	  658.77	-1980.00	  413.31
    113.9700	  613.00	  662.34	-2010.57	  413.50
    114.0700	  666.00	  666.46	-1961.69	  413.69
    114.1700	  657.00	  671.27	-1975.50	  413.88
    114.2700	  667.00	  676.95	-1971.19	  414.08
    114.3700	  676.00	  683.75	-1968.98	  414.27
    114.4700	  635.00	  691.96	-2018.19	  414.47
    114.5700	  713.00	  701.96	-1950.19	  414.67
    114.6700	  740.00	  714.25	-1935.48	  414.87
    114.7700	  724.00	  729.45	-1966.68	  415.08
    114.8700	  779.00	  748.35	-1930.59	  415.29
    114.9700	  826.00	  771.93	-1907.17	  415.50
    115.0700	  829.00	  801.37	-1933.60	  415.71
    115.1700	  853.00	  838.08	-1946.31	  415.92
    115.2700	  951.00	  883.75	-1893.98	  416.14
    115.3700	  985.00	  940.32	-1916.56	  416.36
    115.4700	 1071.00	 1010.00	-1900.23	  416.58
    115.5700	 1194.00	 1095.22	-1862.45	  416.81
    115.6700	 1305.00	 1198.59	-1854.82	  417.03
    115.7700	 1511.00	 1322.87	-1773.10	  417.26
    115.8700	 1673.00	 1470.86	-1759.09	  417.49
    115.9700	 1815.00	 1645.23	-1791.46	  417.73
    116.0700	 2078.00	 1848.41	-1731.64	  417.96
    116.1700	 2445.00	 2082.37	-1598.61	  418.20
    116.2700	 2657.00	 2348.56	-1652.79	  418.44
    116.3700	 2838.00	 2647.63	-1770.86	  418.68
    116.4700	 3181.00	 2979.17	-1759.40	  418.93
    116.5700	 3645.00	 3341.64	-1657.87	  419.18
    116.6700	 3939.00	 3732.16	-1754.39	  419.43
    116.7700	 4253.00	 4146.56	-1854.79	  419.68
    116.8700	 4575.00	 4579.22	-1965.45	  419.94
    116.9700	 4941.00	 5023.03	-2043.26	  420.19
    117.0700	 5389.00	 5469.49	-2041.72	  420.45
    117.1700	 5729.00	 5908.81	-2141.04	  420.72
    117.2700	 6185.00	 6330.27	-2106.50	  420.98
    117.3700	 6459.00	 6722.38	-2224.62	  421.25
    117.4700	 6876.00	 7073.13	-2158.36	  421.52
    117.5700	 7130.00	 7370.73	-2201.96	  421.79
    117.6700	 7354.00	 7604.22	-2211.45	  422.06
    117.7700	 7494.00	 7764.47	-2231.71	  422.34
    117.8700	 7606.00	 7844.93	-2200.17	  422.62
    117.9700	 7571.00	 7842.35	-2232.58	  422.90
    118.0700	 7477.00	 7757.26	-2241.49	  423.19
    118.1700	 7255.00	 7593.91	-2300.14	  423.47
    118.2700	 6877.00	 7359.65	-2443.88	  423.76
    118.3700	 6864.00	 7064.13	-2161.36	  424.05
    118.4700	 6555.00	 6718.51	-2124.75	  424.35
    118.5700	 6132.00	 6334.57	-2163.80	  424.64
    118.6700	 5816.00	 5924.08	-2069.31	  424.94
    118.7700	 5433.00	 5498.17	-2026.40	  425.24
    118.8700	 5214.00	 5067.04	-1814.28	  425.55
    118.9700	 4859.00	 4639.93	-1742.16	  425.85
    119.0700	 4578.00	 4224.65	-1607.89	  426.16
    119.1700	 4157.00	 3827.73	-1631.96	  426.47
    119.2700	 3700.00	 3454.09	-1715.32	  426.79
    119.3700	 3312.00	 3107.28	-1756.51	  427.10
    119.4700	 3042.00	 2789.64	-1708.88	  427.42
    119.5700	 2797.00	 2502.27	-1666.50	  427.74
    119.6700	 2467.00	 2245.27	-1739.50	  428.07
    119.7700	 2297.00	 2017.83	-1682.06	  428.39
    119.8700	 2017.00	 1818.49	-1762.72	  428.72
    119.9700	 1893.00	 1645.38	-1713.61	  429.05
    120.0700	 1672.00	 1496.27	-1785.51	  429.39
    120.1700	 1551.00	 1368.77	-1779.01	  429.72
    120.2700	 1492.00	 1260.40	-1729.63	  430.06
    120.3700	 1369.00	 1168.72	-1760.95	  430.40
    120.4700	 1223.00	 1091.47	-1829.70	  430.75
    120.5700	 1151.00	 1026.53	-1836.76	  431.09
    120.6700	 1106.00	  972.02	-1827.25	  431.44
    120.7700	 1017.00	  926.25	-1870.48	  431.79
    120.8700	  906.00	  887.79	-1943.03	  432.15
    120.9700	  932.00	  855.44	-1884.67	  432.50
    121.0700	  856.00	  828.17	-1933.41	  432.86
    121.1700	  851.00	  805.17	-1915.40	  433.22
    121.2700	  807.00	  785.73	-1939.97	  433.59
    121.3700	  793.00	  769.33	-1937.56	  433.95
    121.4700	  779.00	  755.51	-1937.75	  434.32
    121.5700	  773.00	  743.94	-1932.18	  434.69
    121.6700	  664.00	  734.34	-2031.57	  435.07
    121.7700	  708.00	  726.47	-1979.71	  435.44
    121.8700	  707.00	  720.17	-1974.40	  435.82
    121.9700	  705.00	  715.29	-1971.52	  436.20
    122.0700	  715.00	  711.71	-1957.94	  436.59
    122.1700	  630.00	  709.34	-2040.57	  436.97
    122.2700	  653.00	  708.10	-2016.33	  437.36
    122.3700	  710.00	  707.92	-1959.15	  437.75
    122.4700	  678.00	  708.74	-1991.97	  438.15
    122.5700	  731.00	  710.50	-1940.73	  438.54
    122.6700	  670.00	  713.16	-2004.39	  438.94
    122.7700	  664.00	  716.65	-2013.88	  439.34
    122.8700	  673.00	  720.91	-2009.14	  439.75
    122.9700	  675.00	  725.88	-2012.11	  440.15
    123.0700	  750.00	  731.49	-1942.72	  440.56
    123.1700	  714.00	  737.66	-1984.89	  440.98
    123.2700	  731.00	  744.29	-1974.53	  441.39
    123.3700	  718.00	  751.31	-1994.54	  441.81
    123.4700	  710.00	  758.59	-2009.82	  442.23
    123.5700	  758.00	  766.03	-1969.26	  442.65
    123.6700	  719.00	  773.51	-2015.74	  443.07
    123.7700	  759.00	  780.90	-1983.14	  443.50
    123.8700	  767.00	  788.09	-1982.32	  443.93
    123.9700	  759.00	  794.95	-1997.19	  444.36
    124.0700	  801.00	  801.39	-1961.62	  444.79
    124.1700	  763.00	  807.30	-2005.53	  445.23
    124.2700	  793.00	  812.61	-1980.85	  445.67
    124.3700	  806.00	  817.31	-1972.54	  446.11
    124.4700	  752.00	  821.34	-2030.57	  446.56
    124.5700	  751.00	  824.78	-2035.01	  447.01
    124.6700	  800.00	  827.64	-1988.88	  447.45
    124.7700	  778.00	  829.99	-2013.22	  447.91
    124.8700	  783.00	  831.88	-2010.11	  448.36
    124.9700	  824.00	  583.87	-1721.11	  448.82
    125.0700	  810.00	  584.33	-1961.23	  449.28
    125.1700	  724.00	  584.79	-1961.23	  449.74
    125.2700	  813.00	  585.26	-1961.23	  450.21
    125.3700	  790.00	  585.73	-1961.23	  450.67
    125.4700	  740.00	  586.20	-1961.23	  451.14
    125.5700	  741.00	  586.67	-1961.23	  451.61
    125.6700	  822.00	  587.14	-1961.23	  452.09
    125.7700	  793.00	  587.62	-1961.23	  452.57
    125.8700	  830.00	  588.10	-1961.23	  453.05
    125.9700	  775.00	  588.58	-1961.23	  453.53
    126.0700	  742.00	  589.07	-1961.23	  454.01
    126.1700	  738.00	  589.56	-1961.23	  454.50
    126.2700	  797.00	  590.05	-1961.23	  454.99
    126.3700	  777.00	  590.54	-1961.23	  455.48
    126.4700	  696.00	  591.03	-1961.23	  455.98
    126.5700	  775.00	  591.53	-1961.23	  456.48
    126.6700	  741.00	  592.03	-1961.23	  456.98
    126.7700	  784.00	  592.53	-1961.23	  457.48
    126.8700	  760.00	  593.04	-1961.23	  457.98
    126.9700	  694.00	  593.55	-1961.23	  458.49
    127.0700	  734.00	  594.06	-1961.23	  459.00
    127.1700	  672.00	  594.57	-1961.23	  459.51
    127.2700	  685.00	  595.08	-1961.23	  460.03
    127.3700	  658.00	  595.60	-1961.23	  460.55
    127.4700	  646.00	  596.12	-1961.23	  461.07
    127.5700	  746.00	  596.64	-1961.23	  461.59
    127.6700	  641.00	  597.17	-1961.23	  462.11
    127.7700	  702.00	  597.70	-1961.23	  462.64
    127.8700	  651.00	  598.23	-1961.23	  463.17
    127.9700	  635.00	  598.76	-1961.23	  463.70
    128.0700	  598.00	  599.29	-1961.23	  464.24
    128.1700	  663.00	  599.83	-1961.23	  464.78
    128.2700	  610.00	  600.37	-1961.23	  465.32
    128.3700	  662.00	  600.91	-1961.23	  465.86
    128.4700	  651.00	  601.46	-1961.23	  466.40
    128.5700	    0.00	  602.00	-1961.23	  466.95
    128.6700	    0.00	  602.55	-1961.23	  467.50
     12.4344	        	        	        	        	       0	(  0  0  2)	  0  1
     12.4344	        	        	        	        	    -490	(  0  0  2)	  0  1
     25.1090	        	        	        	        	       0	(  0  0  4)	  0  1
     25.1090	        	        	        	        	    -490	(  0  0  4)	  0  1
     28.5589	        	        	        	        	       0	(  1  0  0)	  0  1
     28.5589	        	        	        	        	    -490	(  1  0  0)	  0  1
     29.2618	        	        	        	        	       0	(  1  0  1)	  0  1
     29.2618	        	        	        	        	    -490	(  1  0  1)	  0  1
     31.2842	        	        	        	        	       0	(  1  0  2)	  0  1
     31.2842	        	        	        	        	    -490	(  1  0  2)	  0  1
     34.4177	        	        	        	        	       0	(  1  0  3)	  0  1
     34.4177	        	        	        	        	    -490	(  1  0  3)	  0  1
     38.1066	        	        	        	        	       0	(  0  0  6)	  0  1
     38.1066	        	        	        	        	    -490	(  0  0  6)	  0  1
     38.4272	        	        	        	        	       0	(  1  0  4)	  0  1
     38.4272	        	        	        	        	    -490	(  1  0  4)	  0  1
     43.1159	        	        	        	        	       0	(  1  0  5)	  0  1
     43.1159	        	        	        	        	    -490	(  1  0  5)	  0  1
     48.3440	        	        	        	        	       0	(  1  0  6)	  0  1
     48.3440	        	        	        	        	    -490	(  1  0  6)	  0  1
     50.6566	        	        	        	        	       0	(  1  1  0)	  0  1
     50.6566	        	        	        	        	    -490	(  1  1  0)	  0  1
     51.6391	        	        	        	        	       0	(  0  0  8)	  0  1
     51.6391	        	        	        	        	    -490	(  0  0  8)	  0  1
     52.3954	        	        	        	        	       0	(  1  1  2)	  0  1
     52.3954	        	        	        	        	    -490	(  1  1  2)	  0  1
     54.0240	        	        	        	        	       0	(  1  0  7)	  0  1
     54.0240	        	        	        	        	    -490	(  1  0  7)	  0  1
     57.3894	        	        	        	        	       0	(  1  1  4)	  0  1
     57.3894	        	        	        	        	    -490	(  1  1  4)	  0  1
     59.2233	        	        	        	        	       0	(  2  0  0)	  0  1
     59.2233	        	        	        	        	    -490	(  2  0  0)	  0  1
     59.6187	        	        	        	        	       0	(  2  0  1)	  0  1
     59.6187	        	        	        	        	    -490	(  2  0  1)	  0  1
     60.1101	        	        	        	        	       0	(  1  0  8)	  0  1
     60.1101	        	        	        	        	    -490	(  1  0  8)	  0  1
     60.7955	        	        	        	        	       0	(  2  0  2)	  0  1
     60.7955	        	        	        	        	    -490	(  2  0  2)	  0  1
     62.7277	        	        	        	        	       0	(  2  0  3)	  0  1
     62.7277	        	        	        	        	    -490	(  2  0  3)	  0  1
     65.1595	        	        	        	        	       0	(  1  1  6)	  0  1
     65.1595	        	        	        	        	    -490	(  1  1  6)	  0  1
     65.3784	        	        	        	        	       0	(  2  0  4)	  0  1
     65.3784	        	        	        	        	    -490	(  2  0  4)	  0  1
     66.0004	        	        	        	        	       0	(  0  0 10)	  0  1
     66.0004	        	        	        	        	    -490	(  0  0 10)	  0  1
     66.5893	        	        	        	        	       0	(  1  0  9)	  0  1
     66.5893	        	        	        	        	    -490	(  1  0  9)	  0  1
     68.7069	        	        	        	        	       0	(  2  0  5)	  0  1
     68.7069	        	        	        	        	    -490	(  2  0  5)	  0  1
     72.6769	        	        	        	        	       0	(  2  0  6)	  0  1
     72.6769	        	        	        	        	    -490	(  2  0  6)	  0  1
     73.4773	        	        	        	        	       0	(  1  0 10)	  0  1
     73.4773	        	        	        	        	    -490	(  1  0 10)	  0  1
     75.3047	        	        	        	        	       0	(  1  1  8)	  0  1
     75.3047	        	        	        	        	    -490	(  1  1  8)	  0  1
     77.2624	        	        	        	        	       0	(  2  0  7)	  0  1
     77.2624	        	        	        	        	    -490	(  2  0  7)	  0  1
     80.8187	        	        	        	        	       0	(  1  0 11)	  0  1
     80.8187	        	        	        	        	    -490	(  1  0 11)	  0  1
     81.6515	        	        	        	        	       0	(  0  0 12)	  0  1
     81.6515	        	        	        	        	    -490	(  0  0 12)	  0  1
     81.6813	        	        	        	        	       0	(  2  1  0)	  0  1
     81.6813	        	        	        	        	    -490	(  2  1  0)	  0  1
     82.0254	        	        	        	        	       0	(  2  1  1)	  0  1
     82.0254	        	        	        	        	    -490	(  2  1  1)	  0  1
     82.4547	        	        	        	        	       0	(  2  0  8)	  0  1
     82.4547	        	        	        	        	    -490	(  2  0  8)	  0  1
     83.0561	        	        	        	        	       0	(  2  1  2)	  0  1
     83.0561	        	        	        	        	    -490	(  2  1  2)	  0  1
     84.7691	        	        	        	        	       0	(  2  1  3)	  0  1
     84.7691	        	        	        	        	    -490	(  2  1  3)	  0  1
     87.1600	        	        	        	        	       0	(  2  1  4)	  0  1
     87.1600	        	        	        	        	    -490	(  2  1  4)	  0  1
     87.7277	        	        	        	        	       0	(  1  1 10)	  0  1
     87.7277	        	        	        	        	    -490	(  1  1 10)	  0  1
     88.2677	        	        	        	        	       0	(  2  0  9)	  0  1
     88.2677	        	        	        	        	    -490	(  2  0  9)	  0  1
     88.6932	        	        	        	        	       0	(  1  0 12)	  0  1
     88.6932	        	        	        	        	    -490	(  1  0 12)	  0  1
     90.2275	        	        	        	        	       0	(  2  1  5)	  0  1
     90.2275	        	        	        	        	    -490	(  2  1  5)	  0  1
     93.9788	        	        	        	        	       0	(  2  1  6)	  0  1
     93.9788	        	        	        	        	    -490	(  2  1  6)	  0  1
     94.7472	        	        	        	        	       0	(  2  0 10)	  0  1
     94.7472	        	        	        	        	    -490	(  2  0 10)	  0  1
     95.7462	        	        	        	        	       0	(  3  0  0)	  0  1
     95.7462	        	        	        	        	    -490	(  3  0  0)	  0  1
     96.0888	        	        	        	        	       0	(  3  0  1)	  0  1
     96.0888	        	        	        	        	    -490	(  3  0  1)	  0  1
     97.1179	        	        	        	        	       0	(  3  0  2)	  0  1
     97.1179	        	        	        	        	    -490	(  3  0  2)	  0  1
     97.2311	        	        	        	        	       0	(  1  0 13)	  0  1
     97.2311	        	        	        	        	    -490	(  1  0 13)	  0  1
     98.4361	        	        	        	        	       0	(  2  1  7)	  0  1
     98.4361	        	        	        	        	    -490	(  2  1  7)	  0  1
     98.8386	        	        	        	        	       0	(  3  0  3)	  0  1
     98.8386	        	        	        	        	    -490	(  3  0  3)	  0  1
     99.4412	        	        	        	        	       0	(  0  0 14)	  0  1
     99.4412	        	        	        	        	    -490	(  0  0 14)	  0  1
    101.2616	        	        	        	        	       0	(  3  0  4)	  0  1
    101.2616	        	        	        	        	    -490	(  3  0  4)	  0  1
    101.9857	        	        	        	        	       0	(  2  0 11)	  0  1
    101.9857	        	        	        	        	    -490	(  2  0 11)	  0  1
    102.8289	        	        	        	        	       0	(  1  1 12)	  0  1
    102.8289	        	        	        	        	    -490	(  1  1 12)	  0  1
    103.6466	        	        	        	        	       0	(  2  1  8)	  0  1
    103.6466	        	        	        	        	    -490	(  2  1  8)	  0  1
    104.4081	        	        	        	        	       0	(  3  0  5)	  0  1
    104.4081	        	        	        	        	    -490	(  3  0  5)	  0  1
    106.6475	        	        	        	        	       0	(  1  0 14)	  0  1
    106.6475	        	        	        	        	    -490	(  1  0 14)	  0  1
    108.3167	        	        	        	        	       0	(  3  0  6)	  0  1
    108.3167	        	        	        	        	    -490	(  3  0  6)	  0  1
    109.6985	        	        	        	        	       0	(  2  1  9)	  0  1
    109.6985	        	        	        	        	    -490	(  2  1  9)	  0  1
    110.1513	        	        	        	        	       0	(  2  0 12)	  0  1
    110.1513	        	        	        	        	    -490	(  2  0 12)	  0  1
    113.0554	        	        	        	        	       0	(  3  0  7)	  0  1
    113.0554	        	        	        	        	    -490	(  3  0  7)	  0  1
    116.7521	        	        	        	        	       0	(  2  1 10)	  0  1
    116.7521	        	        	        	        	    -490	(  2  1 10)	  0  1
    117.3253	        	        	        	        	       0	(  1  0 15)	  0  1
    117.3253	        	        	        	        	    -490	(  1  0 15)	  0  1
    117.8724	        	        	        	        	       0	(  2  2  0)	  0  1
    117.8724	        	        	        	        	    -490	(  2  2  0)	  0  1
    118.7433	        	        	        	        	       0	(  3  0  8)	  0  1
    118.7433	        	        	        	        	    -490	(  3  0  8)	  0  1
    119.4267	        	        	        	        	       0	(  2  2  2)	  0  1
    119.4267	        	        	        	        	    -490	(  2  2  2)	  0  1
    119.5558	        	        	        	        	       0	(  2  0 13)	  0  1
    119.5558	        	        	        	        	    -490	(  2  0 13)	  0  1
    121.4017	        	        	        	        	       0	(  0  0 16)	  0  1
    121.4017	        	        	        	        	    -490	(  0  0 16)	  0  1
    122.1042	        	        	        	        	       0	(  1  1 14)	  0  1
    122.1042	        	        	        	        	    -490	(  1  1 14)	  0  1
    124.2453	        	        	        	        	       0	(  2  2  4)	  0  1
    124.2453	        	        	        	        	    -490	(  2  2  4)	  0  1
    125.1084	        	        	        	        	       0	(  2  1 11)	  0  1
    125.1084	        	        	        	        	    -490	(  2  1 11)	  0  1
    125.5967	        	        	        	        	       0	(  3  0  9)	  0  1
    125.5967	        	        	        	        	    -490	(  3  0  9)	  0  1
    126.1588	        	        	        	        	       0	(  3  1  0)	  0  1
    126.1588	        	        	        	        	    -490	(  3  1  0)	  0  1
    126.5824	        	        	        	        	       0	(  3  1  1)	  0  1
    126.5824	        	        	        	        	    -490	(  3  1  1)	  0  1
    127.8676	        	        	        	        	       0	(  3  1  2)	  0  1
    127.8676	        	        	        	        	    -490	(  3  1  2)	  0  1
    130.0615	        	        	        	        	       0	(  3  1  3)	  0  1
    130.0615	        	        	        	        	    -490	(  3  1  3)	  0  1
    130.0589	        	        	        	        	       0	(  1  0 16)	  0  1
    130.0589	        	        	        	        	    -490	(  1  0 16)	  0  1
    130.8441	        	        	        	        	       0	(  2  0 14)	  0  1
    130.8441	        	        	        	        	    -490	(  2  0 14)	  0  1
    132.9857	        	        	        	        	       0	(  2  2  6)	  0  1
    132.9857	        	        	        	        	    -490	(  2  2  6)	  0  1
    133.2586	        	        	        	        	       0	(  3  1  4)	  0  1
    133.2586	        	        	        	        	    -490	(  3  1  4)	  0  1
    134.0437	        	        	        	        	       0	(  3  0 10)	  0  1
    134.0437	        	        	        	        	    -490	(  3  0 10)	  0  1
    135.4040	        	        	        	        	       0	(  2  1 12)	  0  1
    135.4040	        	        	        	        	    -490	(  2  1 12)	  0  1
    137.6374	        	        	        	        	       0	(  3  1  5)	  0  1
    137.6374	        	        	        	        	    -490	(  3  1  5)	  0  1
    143.5552	        	        	        	        	       0	(  3  1  6)	  0  1
    143.5552	        	        	        	        	    -490	(  3  1  6)	  0  1
    145.1158	        	        	        	        	       0	(  3  0 11)	  0  1
    145.1158	        	        	        	        	    -490	(  3  0 11)	  0  1
    145.7665	        	        	        	        	       0	(  2  0 15)	  0  1
    145.7665	        	        	        	        	    -490	(  2  0 15)	  0  1
    147.1564	        	        	        	        	       0	(  1  0 17)	  0  1
    147.1564	        	        	        	        	    -490	(  1  0 17)	  0  1
    148.0630	        	        	        	        	       0	(  2  2  8)	  0  1
    148.0630	        	        	        	        	    -490	(  2  2  8)	  0  1
    149.4331	        	        	        	        	       0	(  2  1 13)	  0  1
    149.4331	        	        	        	        	    -490	(  2  1 13)	  0  1
    151.8752	        	        	        	        	       0	(  3  1  7)	  0  1
    151.8752	        	        	        	        	    -490	(  3  1  7)	  0  1
    152.7293	        	        	        	        	       0	(  1  1 16)	  0  1
    152.7293	        	        	        	        	    -490	(  1  1 16)	  0  1
    157.8399	        	        	        	        	       0	(  0  0 18)	  0  1
    157.8399	        	        	        	        	    -490	(  0  0 18)	  0  1
    163.2387	        	        	        	        	       0	(  3  0 12)	  0  1
    163.2387	        	        	        	        	    -490	(  3  0 12)	  0  1
    163.3420	        	        	        	        	       0	(  4  0  0)	  0  1
    163.3420	        	        	        	        	    -490	(  4  0  0)	  0  1
    164.5818	        	        	        	        	       0	(  4  0  1)	  0  1
    164.5818	        	        	        	        	    -490	(  4  0  1)	  0  1
    166.2832	        	        	        	        	       0	(  3  1  8)	  0  1
    166.2832	        	        	        	        	    -490	(  3  1  8)	  0  1
    169.1029	        	        	        	        	       0	(  4  0  2)	  0  1
    169.1029	        	        	        	        	    -490	(  4  0  2)	  0  1
