MSG Master    CELL:    5.88795   5.88795  23.14358   90.0000   90.0000  120.0000   SPGR: P 63/m m c             TEMP:    624.65
  2   1280     2.52000     0.00000    -0.08994     0.00000     0.00000    0
    96    96     0     0     2
       0.00000      10.00000
     125.00000     130.00000
 2Theta	Yobs	Ycal	Yobs-Ycal	Backg	Posr	(hkl)	K
      0.7700	    0.00	  811.30	-1906.84	  683.76
      0.8700	    0.00	  809.68	-1906.84	  682.13
      0.9700	   40.00	  808.06	-1906.84	  680.52
      1.0700	   49.00	  806.46	-1906.84	  678.91
      1.1700	   52.00	  804.85	-1906.84	  677.31
      1.2700	   50.00	  803.26	-1906.84	  675.72
      1.3700	   43.00	  801.67	-1906.84	  674.13
      1.4700	  107.00	  800.10	-1906.84	  672.55
      1.5700	  304.00	  798.52	-1906.84	  670.98
      1.6700	  452.00	  796.96	-1906.84	  669.41
      1.7700	  616.00	  795.40	-1906.84	  667.86
      1.8700	  644.00	  793.85	-1906.84	  666.30
      1.9700	  716.00	  792.30	-1906.84	  664.76
      2.0700	  768.00	  790.76	-1906.84	  663.22
      2.1700	  741.00	  789.23	-1906.84	  661.69
      2.2700	  763.00	  787.71	-1906.84	  660.16
      2.3700	  775.00	  786.19	-1906.84	  658.65
      2.4700	  750.00	  784.68	-1906.84	  657.13
      2.5700	  680.00	  783.17	-1906.84	  655.63
      2.6700	  643.00	  781.67	-1906.84	  654.13
      2.7700	  670.00	  780.18	-1906.84	  652.64
      2.8700	  689.00	  778.70	-1906.84	  651.16
      2.9700	  596.00	  777.22	-1906.84	  649.68
      3.0700	  641.00	  775.75	-1906.84	  648.21
      3.1700	  596.00	  774.29	-1906.84	  646.74
      3.2700	  695.00	  772.83	-1906.84	  645.29
      3.3700	  900.00	  771.38	-1906.84	  643.83
      3.4700	 1070.00	  769.93	-1906.84	  642.39
      3.5700	 1203.00	  768.49	-1906.84	  640.95
      3.6700	 1307.00	  767.06	-1906.84	  639.52
      3.7700	 1440.00	  765.64	-1906.84	  638.09
      3.8700	 1530.00	  764.22	-1906.84	  636.68
      3.9700	 1582.00	  762.81	-1906.84	  635.26
      4.0700	 1612.00	  761.40	-1906.84	  633.86
      4.1700	 1601.00	  760.00	-1906.84	  632.46
      4.2700	 1671.00	  758.61	-1906.84	  631.07
      4.3700	 1608.00	  757.22	-1906.84	  629.68
      4.4700	 1525.00	  755.84	-1906.84	  628.30
      4.5700	 1513.00	  754.47	-1906.84	  626.93
      4.6700	 1482.00	  753.10	-1906.84	  625.56
      4.7700	 1466.00	  751.74	-1906.84	  624.20
      4.8700	 1362.00	  750.39	-1906.84	  622.85
      4.9700	 1330.00	  749.04	-1906.84	  621.50
      5.0700	 1234.00	  747.70	-1906.84	  620.16
      5.1700	 1248.00	  746.37	-1906.84	  618.82
      5.2700	 1195.00	  745.04	-1906.84	  617.49
      5.3700	 1211.00	  743.71	-1906.84	  616.17
      5.4700	 1245.00	  742.40	-1906.84	  614.86
      5.5700	 1092.00	  741.09	-1906.84	  613.55
      5.6700	 1117.00	  739.78	-1906.84	  612.24
      5.7700	 1101.00	  738.49	-1906.84	  610.94
      5.8700	 1125.00	  737.20	-1906.84	  609.65
      5.9700	 1089.00	  735.91	-1906.84	  608.37
      6.0700	 1036.00	  734.63	-1906.84	  607.09
      6.1700	  996.00	  733.36	-1906.84	  605.81
      6.2700	  990.00	  732.09	-1906.84	  604.55
      6.3700	  989.00	  730.83	-1906.84	  603.29
      6.4700	  982.00	  729.58	-1906.84	  602.03
      6.5700	  955.00	  728.33	-1906.84	  600.78
      6.6700	  962.00	  727.08	-1906.84	  599.54
      6.7700	  918.00	  725.85	-1906.84	  598.30
      6.8700	  895.00	  724.62	-1906.84	  597.07
      6.9700	  873.00	  723.39	-1906.84	  595.85
      7.0700	  836.00	  722.17	-1906.84	  594.63
      7.1700	  797.00	  720.96	-1906.84	  593.42
      7.2700	  882.00	  719.76	-1906.84	  592.21
      7.3700	  828.00	  718.55	-1906.84	  591.01
      7.4700	  818.00	  717.36	-1906.84	  589.82
      7.5700	  807.00	  716.17	-1906.84	  588.63
      7.6700	  812.00	  714.99	-1906.84	  587.45
      7.7700	  818.00	  713.81	-1906.84	  586.27
      7.8700	  747.00	  712.64	-1906.84	  585.10
      7.9700	  785.00	  711.47	-1906.84	  583.93
      8.0700	  771.00	  710.32	-1906.84	  582.77
      8.1700	  787.00	  709.16	-1906.84	  581.62
      8.2700	  752.00	  708.01	-1906.84	  580.47
      8.3700	  747.00	  706.87	-1906.84	  579.33
      8.4700	  770.00	  705.74	-1906.84	  578.19
      8.5700	  748.00	  704.60	-1906.84	  577.06
      8.6700	  746.00	  703.48	-1906.84	  575.94
      8.7700	  726.00	  702.36	-1906.84	  574.82
      8.8700	  733.00	  701.25	-1906.84	  573.70
      8.9700	  753.00	  700.14	-1906.84	  572.60
      9.0700	  762.00	  699.04	-1906.84	  571.49
      9.1700	  733.00	  697.94	-1906.84	  570.40
      9.2700	  708.00	  696.85	-1906.84	  569.31
      9.3700	  674.00	  695.76	-1906.84	  568.22
      9.4700	  735.00	  694.69	-1906.84	  567.14
      9.5700	  691.00	  693.61	-1906.84	  566.07
      9.6700	  718.00	  692.54	-1906.84	  565.00
      9.7700	  772.00	  691.48	-1906.84	  563.94
      9.8700	  735.00	  690.42	-1906.84	  562.88
      9.9700	  662.00	  689.37	-1906.84	  561.83
     10.0700	  686.00	  690.45	-1911.28	  560.78
     10.1700	  667.00	  689.64	-1929.48	  559.74
     10.2700	  748.00	  688.89	-1847.72	  558.71
     10.3700	  700.00	  688.20	-1895.04	  557.68
     10.4700	  714.00	  687.62	-1880.46	  556.65
     10.5700	  646.00	  687.18	-1948.02	  555.63
     10.6700	  666.00	  686.96	-1927.79	  554.62
     10.7700	  714.00	  687.03	-1879.87	  553.61
     10.8700	  706.00	  687.50	-1888.34	  552.61
     10.9700	  726.00	  688.46	-1869.30	  551.61
     11.0700	  700.00	  689.93	-1896.77	  550.62
     11.1700	  709.00	  691.94	-1889.78	  549.63
     11.2700	  734.00	  694.50	-1867.34	  548.65
     11.3700	  689.00	  697.68	-1915.51	  547.67
     11.4700	  674.00	  701.57	-1934.41	  546.70
     11.5700	  731.00	  706.36	-1882.19	  545.74
     11.6700	  761.00	  712.28	-1858.12	  544.77
     11.7700	  735.00	  719.68	-1891.52	  543.82
     11.8700	  774.00	  728.83	-1861.66	  542.87
     11.9700	  743.00	  739.71	-1903.55	  541.92
     12.0700	  808.00	  751.56	-1850.40	  540.98
     12.1700	  794.00	  762.21	-1875.05	  540.05
     12.2700	  792.00	  767.60	-1882.44	  539.12
     12.3700	  813.00	  762.69	-1856.53	  538.20
     12.4700	  747.00	  746.37	-1906.21	  537.28
     12.5700	  700.00	  725.01	-1931.85	  536.36
     12.6700	  726.00	  705.72	-1886.56	  535.45
     12.7700	  700.00	  691.19	-1898.02	  534.55
     12.8700	  688.00	  681.23	-1900.07	  533.65
     12.9700	  660.00	  674.63	-1921.47	  532.76
     13.0700	  673.00	  670.21	-1904.04	  531.87
     13.1700	  646.00	  667.06	-1927.89	  530.99
     13.2700	  636.00	  664.63	-1935.46	  530.11
     13.3700	  630.00	  662.62	-1939.46	  529.23
     13.4700	  596.00	  660.89	-1971.73	  528.36
     13.5700	  661.00	  659.35	-1905.19	  527.50
     13.6700	  665.00	  657.95	-1899.78	  526.64
     13.7700	  652.00	  656.65	-1911.48	  525.79
     13.8700	  620.00	  655.43	-1942.27	  524.94
     13.9700	  655.00	  654.28	-1906.12	  524.09
     14.0700	  686.00	  653.18	-1874.02	  523.25
     14.1700	  635.00	  652.13	-1923.96	  522.42
     14.2700	  598.00	  651.11	-1959.94	  521.59
     14.3700	  618.00	  650.12	-1938.96	  520.77
     14.4700	  623.00	  649.16	-1932.99	  519.95
     14.5700	  642.00	  648.22	-1913.05	  519.13
     14.6700	  609.00	  647.30	-1945.13	  518.32
     14.7700	  650.00	  646.39	-1903.23	  517.51
     14.8700	  619.00	  645.51	-1933.34	  516.71
     14.9700	  657.00	  644.63	-1894.47	  515.92
     15.0700	  628.00	  643.77	-1922.61	  515.12
     15.1700	  606.00	  642.92	-1943.76	  514.34
     15.2700	  607.00	  642.08	-1941.92	  513.56
     15.3700	  651.00	  641.26	-1897.09	  512.78
     15.4700	  639.00	  640.44	-1908.27	  512.00
     15.5700	  585.00	  639.63	-1961.46	  511.24
     15.6700	  645.00	  638.83	-1900.66	  510.47
     15.7700	  605.00	  638.03	-1939.87	  509.71
     15.8700	  617.00	  637.25	-1927.08	  508.96
     15.9700	  629.00	  636.47	-1914.30	  508.21
     16.0700	  628.00	  635.69	-1914.53	  507.46
     16.1700	  639.00	  634.93	-1902.77	  506.72
     16.2700	  664.00	  634.17	-1877.01	  505.99
     16.3700	  654.00	  633.42	-1886.25	  505.25
     16.4700	  636.00	  632.67	-1903.51	  504.53
     16.5700	  622.00	  631.93	-1916.77	  503.80
     16.6700	  609.00	  631.19	-1929.03	  503.09
     16.7700	  588.00	  630.46	-1949.30	  502.37
     16.8700	  656.00	  629.74	-1880.58	  501.66
     16.9700	  671.00	  629.02	-1864.86	  500.96
     17.0700	  658.00	  628.31	-1877.15	  500.26
     17.1700	  646.00	  627.60	-1888.44	  499.56
     17.2700	  659.00	  626.90	-1874.74	  498.87
     17.3700	  638.00	  626.20	-1895.04	  498.18
     17.4700	  642.00	  625.51	-1890.35	  497.50
     17.5700	  644.00	  624.82	-1887.66	  496.82
     17.6700	  618.00	  624.14	-1912.98	  496.14
     17.7700	  617.00	  623.46	-1913.30	  495.47
     17.8700	  586.00	  622.79	-1943.63	  494.81
     17.9700	  618.00	  622.12	-1910.96	  494.15
     18.0700	  614.00	  621.46	-1914.30	  493.49
     18.1700	  625.00	  620.80	-1902.64	  492.84
     18.2700	  645.00	  620.15	-1881.99	  492.19
     18.3700	  609.00	  619.50	-1917.34	  491.54
     18.4700	  623.00	  618.86	-1902.69	  490.90
     18.5700	  573.00	  618.22	-1952.05	  490.26
     18.6700	  617.00	  618.94	-1908.78	  489.63
     18.7700	  620.00	  619.12	-1905.96	  489.00
     18.8700	  602.00	  618.54	-1923.38	  488.38
     18.9700	  611.00	  617.96	-1913.80	  487.76
     19.0700	  652.00	  617.40	-1872.23	  487.14
     19.1700	  635.00	  616.83	-1888.67	  486.53
     19.2700	  583.00	  616.28	-1940.11	  485.92
     19.3700	  604.00	  615.72	-1918.56	  485.32
     19.4700	  632.00	  615.18	-1890.02	  484.72
     19.5700	  561.00	  614.64	-1960.48	  484.13
     19.6700	  616.00	  614.11	-1904.95	  483.53
     19.7700	  588.00	  613.58	-1932.42	  482.95
     19.8700	  599.00	  613.06	-1920.90	  482.36
     19.9700	  610.00	  612.60	-1909.44	  481.78
     20.0700	  620.00	  612.10	-1898.94	  481.21
     20.1700	  628.00	  611.60	-1890.44	  480.64
     20.2700	  623.00	  611.11	-1894.95	  480.07
     20.3700	  580.00	  610.63	-1937.46	  479.50
     20.4700	  597.00	  610.15	-1919.99	  478.94
     20.5700	  611.00	  609.68	-1905.52	  478.39
     20.6700	  597.00	  609.22	-1919.06	  477.84
     20.7700	  613.00	  608.77	-1902.60	  477.29
     20.8700	  613.00	  608.32	-1902.16	  476.74
     20.9700	  565.00	  607.88	-1949.72	  476.20
     21.0700	  567.00	  607.45	-1947.29	  475.66
     21.1700	  645.00	  607.03	-1868.87	  475.13
     21.2700	  654.00	  606.62	-1859.46	  474.60
     21.3700	  612.00	  606.22	-1901.06	  474.08
     21.4700	  642.00	  605.83	-1870.67	  473.55
     21.5700	  623.00	  605.45	-1889.29	  473.04
     21.6700	  601.00	  605.08	-1910.92	  472.52
     21.7700	  597.00	  604.72	-1914.56	  472.01
     21.8700	  605.00	  604.38	-1906.22	  471.50
     21.9700	  611.00	  604.04	-1899.88	  471.00
     22.0700	  584.00	  603.72	-1926.56	  470.50
     22.1700	  623.00	  603.42	-1887.26	  470.00
     22.2700	  608.00	  603.32	-1902.15	  469.51
     22.3700	  605.00	  603.05	-1904.88	  469.02
     22.4700	  573.00	  602.79	-1936.63	  468.54
     22.5700	  605.00	  602.56	-1904.40	  468.06
     22.6700	  597.00	  602.35	-1912.18	  467.58
     22.7700	  577.00	  602.16	-1931.99	  467.10
     22.8700	  648.00	  601.99	-1860.83	  466.63
     22.9700	  584.00	  601.86	-1924.70	  466.16
     23.0700	  592.00	  601.76	-1916.59	  465.70
     23.1700	  602.00	  601.69	-1906.53	  465.24
     23.2700	  615.00	  601.67	-1893.51	  464.78
     23.3700	  601.00	  601.70	-1907.54	  464.33
     23.4700	  605.00	  601.79	-1903.63	  463.88
     23.5700	  579.00	  601.95	-1929.79	  463.43
     23.6700	  654.00	  602.21	-1855.05	  462.99
     23.7700	  619.00	  602.60	-1890.44	  462.55
     23.8700	  607.00	  603.17	-1903.00	  462.11
     23.9700	  635.00	  604.00	-1875.84	  461.68
     24.0700	  598.00	  605.24	-1914.08	  461.25
     24.1700	  601.00	  607.08	-1912.92	  460.82
     24.2700	  609.00	  609.95	-1907.79	  460.40
     24.3700	  607.00	  614.23	-1914.07	  459.98
     24.4700	  669.00	  620.34	-1858.18	  459.56
     24.5700	  668.00	  628.47	-1867.31	  459.15
     24.6700	  638.00	  638.38	-1907.22	  458.74
     24.7700	  713.00	  649.07	-1842.91	  458.33
     24.8700	  739.00	  658.40	-1826.23	  457.93
     24.9700	  668.00	  662.97	-1901.81	  457.53
     25.0700	  679.00	  659.76	-1887.60	  457.13
     25.1700	  651.00	  649.87	-1905.71	  456.74
     25.2700	  623.00	  638.17	-1922.01	  456.35
     25.3700	  661.00	  628.37	-1874.21	  455.96
     25.4700	  613.00	  621.51	-1915.34	  455.58
     25.5700	  679.00	  617.38	-1845.22	  455.20
     25.6700	  616.00	  615.33	-1906.17	  454.82
     25.7700	  653.00	  614.70	-1868.53	  454.44
     25.8700	  663.00	  614.98	-1858.82	  454.07
     25.9700	  652.00	  615.91	-1870.75	  453.71
     26.0700	  643.00	  617.35	-1881.19	  453.34
     26.1700	  657.00	  619.26	-1869.10	  452.98
     26.2700	  646.00	  621.65	-1882.48	  452.62
     26.3700	  605.00	  624.55	-1926.39	  452.26
     26.4700	  670.00	  628.04	-1864.88	  451.91
     26.5700	  617.00	  632.22	-1922.06	  451.56
     26.6700	  600.00	  637.22	-1944.06	  451.21
     26.7700	  661.00	  643.21	-1889.05	  450.87
     26.8700	  659.00	  650.44	-1898.28	  450.53
     26.9700	  642.00	  659.23	-1924.07	  450.19
     27.0700	  672.00	  670.03	-1904.86	  449.85
     27.1700	  656.00	  683.46	-1934.30	  449.52
     27.2700	  672.00	  700.51	-1935.34	  449.19
     27.3700	  707.00	  722.81	-1922.65	  448.86
     27.4700	  677.00	  753.59	-1983.43	  448.54
     27.5700	  744.00	  799.62	-1962.46	  448.22
     27.6700	  762.00	  874.73	-2019.57	  447.90
     27.7700	  831.00	 1004.65	-2080.49	  447.59
     27.8700	  974.00	 1231.29	-2164.13	  447.28
     27.9700	 1238.00	 1610.44	-2279.28	  446.97
     28.0700	 1830.00	 2193.20	-2270.03	  446.66
     28.1700	 2862.00	 2985.45	-2030.29	  446.36
     28.2700	 4103.00	 3888.83	-1692.66	  446.06
     28.3700	 5241.00	 4649.46	-1315.29	  445.76
     28.4700	 5558.00	 4892.34	-1241.18	  445.46
     28.5700	 4803.00	 4423.66	-1527.50	  445.17
     28.6700	 3460.00	 3610.15	-2056.99	  444.88
     28.7700	 2688.00	 2971.67	-2190.51	  444.59
     28.8700	 2502.00	 2717.55	-2122.39	  444.31
     28.9700	 2737.00	 2782.37	-1952.20	  444.03
     29.0700	 3201.00	 2945.85	-1651.69	  443.75
     29.1700	 3247.00	 2938.13	-1597.97	  443.47
     29.2700	 2585.00	 2606.36	-1928.20	  443.20
     29.3700	 2077.00	 2078.67	-1908.51	  442.93
     29.4700	 1451.00	 1578.91	-2034.75	  442.66
     29.5700	 1146.00	 1212.46	-1973.29	  442.39
     29.6700	  959.00	  983.51	-1931.35	  442.13
     29.7700	  897.00	  854.06	-1863.90	  441.87
     29.8700	  849.00	  782.40	-1840.23	  441.61
     29.9700	  820.00	  740.01	-1826.85	  441.35
     30.0700	  700.00	  712.10	-1918.94	  441.10
     30.1700	  735.00	  692.18	-1864.02	  440.85
     30.2700	  697.00	  677.57	-1887.40	  440.60
     30.3700	  673.00	  667.27	-1901.10	  440.36
     30.4700	  683.00	  661.22	-1885.06	  440.11
     30.5700	  651.00	  660.16	-1916.00	  439.87
     30.6700	  673.00	  665.39	-1899.23	  439.64
     30.7700	  669.00	  678.12	-1915.96	  439.40
     30.8700	  705.00	  698.07	-1899.91	  439.17
     30.9700	  797.00	  721.97	-1831.80	  438.94
     31.0700	  739.00	  742.51	-1910.34	  438.71
     31.1700	  734.00	  748.94	-1921.78	  438.48
     31.2700	  663.00	  733.49	-1977.33	  438.26
     31.3700	  774.00	  702.06	-1834.89	  438.04
     31.4700	  709.00	  668.58	-1866.42	  437.82
     31.5700	  692.00	  641.55	-1856.39	  437.60
     31.6700	  669.00	  622.87	-1860.71	  437.39
     31.7700	  653.00	  611.16	-1864.99	  437.18
     31.8700	  619.00	  604.08	-1891.92	  436.97
     31.9700	  619.00	  599.68	-1887.52	  436.76
     32.0700	  658.00	  596.72	-1845.56	  436.56
     32.1700	  638.00	  594.58	-1863.42	  436.35
     32.2700	  632.00	  592.98	-1867.82	  436.15
     32.3700	  604.00	  591.79	-1894.62	  435.96
     32.4700	  608.00	  590.95	-1889.79	  435.76
     32.5700	  619.00	  590.45	-1878.28	  435.57
     32.6700	  582.00	  590.27	-1915.11	  435.38
     32.7700	  579.00	  590.45	-1918.29	  435.19
     32.8700	  600.00	  591.05	-1897.89	  435.00
     32.9700	  596.00	  592.09	-1902.93	  434.82
     33.0700	  636.00	  593.71	-1864.54	  434.63
     33.1700	  617.00	  596.11	-1885.95	  434.45
     33.2700	  611.00	  599.66	-1895.50	  434.27
     33.3700	  621.00	  605.09	-1890.92	  434.10
     33.4700	  651.00	  613.79	-1869.63	  433.92
     33.5700	  632.00	  628.33	-1903.17	  433.75
     33.6700	  623.00	  652.90	-1936.74	  433.58
     33.7700	  622.00	  693.14	-1977.98	  433.42
     33.8700	  774.00	  754.51	-1887.34	  433.25
     33.9700	  821.00	  838.44	-1924.28	  433.09
     34.0700	  978.00	  937.07	-1865.91	  432.92
     34.1700	 1137.00	 1029.47	-1799.31	  432.76
     34.2700	 1165.00	 1082.28	-1824.12	  432.61
     34.3700	 1175.00	 1064.61	-1796.45	  432.45
     34.4700	  988.00	  981.32	-1900.16	  432.30
     34.5700	  892.00	  873.44	-1888.28	  432.15
     34.6700	  759.00	  776.24	-1924.08	  432.00
     34.7700	  690.00	  703.57	-1920.41	  431.85
     34.8700	  728.00	  655.52	-1834.36	  431.70
     34.9700	  702.00	  626.29	-1831.13	  431.56
     35.0700	  624.00	  609.11	-1891.95	  431.42
     35.1700	  664.00	  598.74	-1841.58	  431.28
     35.2700	  604.00	  591.99	-1894.83	  431.14
     35.3700	  585.00	  587.19	-1909.03	  431.00
     35.4700	  614.00	  583.55	-1876.39	  430.87
     35.5700	  585.00	  580.68	-1902.52	  430.74
     35.6700	  590.00	  578.37	-1895.21	  430.61
     35.7700	  585.00	  576.47	-1898.31	  430.48
     35.8700	  590.00	  574.91	-1891.74	  430.35
     35.9700	  570.00	  573.60	-1910.44	  430.23
     36.0700	  618.00	  572.51	-1861.35	  430.10
     36.1700	  577.00	  571.60	-1901.44	  429.98
     36.2700	  561.00	  570.85	-1916.69	  429.86
     36.3700	  558.00	  570.24	-1919.07	  429.74
     36.4700	  556.00	  569.75	-1920.59	  429.63
     36.5700	  587.00	  569.39	-1889.23	  429.51
     36.6700	  525.00	  569.16	-1951.00	  429.40
     36.7700	  567.00	  569.57	-1909.41	  429.29
     36.8700	  581.00	  569.63	-1895.47	  429.18
     36.9700	  545.00	  569.89	-1931.72	  429.07
     37.0700	  583.00	  570.59	-1894.42	  428.97
     37.1700	  553.00	  571.44	-1925.28	  428.86
     37.2700	  574.00	  572.84	-1905.68	  428.76
     37.3700	  575.00	  575.06	-1906.90	  428.66
     37.4700	  571.00	  578.64	-1914.47	  428.56
     37.5700	  596.00	  584.26	-1895.10	  428.46
     37.6700	  633.00	  592.87	-1866.71	  428.37
     37.7700	  629.00	  605.44	-1883.27	  428.27
     37.8700	  607.00	  622.50	-1922.34	  428.18
     37.9700	  633.00	  643.49	-1917.33	  428.09
     38.0700	  610.00	  666.12	-1962.96	  428.00
     38.1700	  662.00	  685.89	-1930.73	  427.91
     38.2700	  693.00	  696.30	-1910.13	  427.82
     38.3700	  642.00	  689.94	-1954.77	  427.74
     38.4700	  626.00	  670.28	-1951.11	  427.65
     38.5700	  629.00	  644.25	-1922.09	  427.57
     38.6700	  593.00	  619.71	-1933.54	  427.49
     38.7700	  583.00	  600.29	-1924.13	  427.41
     38.8700	  575.00	  586.62	-1918.45	  427.33
     38.9700	  586.00	  577.75	-1898.59	  427.26
     39.0700	  569.00	  572.28	-1910.11	  427.18
     39.1700	  571.00	  568.90	-1904.74	  427.11
     39.2700	  618.00	  566.73	-1855.57	  427.04
     39.3700	  546.00	  565.23	-1926.06	  426.97
     39.4700	  564.00	  564.11	-1906.94	  426.90
     39.5700	  574.00	  563.23	-1896.07	  426.83
     39.6700	  567.00	  562.53	-1902.37	  426.77
     39.7700	  582.00	  561.22	-1886.06	  426.70
     39.8700	  561.00	  560.76	-1906.60	  426.64
     39.9700	  542.00	  560.38	-1925.22	  426.57
     40.0700	  571.00	  560.07	-1895.91	  426.51
     40.1700	  595.00	  559.82	-1871.65	  426.45
     40.2700	  623.00	  559.61	-1843.44	  426.40
     40.3700	  601.00	  559.44	-1865.28	  426.34
     40.4700	  563.00	  559.31	-1903.15	  426.28
     40.5700	  587.00	  559.76	-1879.59	  426.23
     40.6700	  534.00	  559.71	-1932.55	  426.18
     40.7700	  551.00	  559.69	-1915.53	  426.13
     40.8700	  533.00	  559.71	-1933.55	  426.07
     40.9700	  560.00	  559.77	-1906.61	  426.03
     41.0700	  539.00	  559.87	-1927.70	  425.98
     41.1700	  576.00	  560.01	-1890.84	  425.93
     41.2700	  516.00	  560.20	-1951.04	  425.89
     41.3700	  533.00	  560.51	-1934.35	  425.84
     41.4700	  571.00	  560.84	-1896.67	  425.80
     41.5700	  505.00	  561.25	-1963.09	  425.76
     41.6700	  544.00	  561.78	-1924.62	  425.72
     41.7700	  570.00	  562.47	-1899.31	  425.68
     41.8700	  584.00	  563.39	-1886.23	  425.64
     41.9700	  575.00	  564.67	-1896.51	  425.60
     42.0700	  533.00	  566.57	-1940.41	  425.56
     42.1700	  500.00	  569.53	-1976.37	  425.53
     42.2700	  584.00	  574.26	-1897.10	  425.49
     42.3700	  583.00	  581.72	-1905.56	  425.46
     42.4700	  563.00	  592.94	-1936.77	  425.43
     42.5700	  603.00	  608.55	-1912.39	  425.40
     42.6700	  594.00	  628.36	-1941.20	  425.37
     42.7700	  664.00	  650.19	-1893.02	  425.34
     42.8700	  623.00	  669.40	-1953.24	  425.31
     42.9700	  658.00	  679.48	-1928.32	  425.29
     43.0700	  639.00	  675.68	-1943.52	  425.26
     43.1700	  660.00	  659.33	-1906.17	  425.24
     43.2700	  601.00	  637.41	-1943.25	  425.21
     43.3700	  577.00	  616.11	-1945.95	  425.19
     43.4700	  598.00	  598.58	-1907.42	  425.17
     43.5700	  561.00	  585.68	-1931.52	  425.15
     43.6700	  570.00	  577.16	-1914.00	  425.13
     43.7700	  550.00	  571.62	-1928.45	  425.11
     43.8700	  557.00	  568.20	-1918.03	  425.09
     43.9700	  602.00	  566.07	-1870.90	  425.08
     44.0700	  592.00	  564.68	-1879.52	  425.06
     44.1700	  535.00	  563.73	-1935.56	  425.05
     44.2700	  602.00	  563.04	-1867.87	  425.03
     44.3700	  574.00	  562.52	-1895.36	  425.02
     44.4700	  554.00	  562.13	-1914.97	  425.01
     44.5700	  587.00	  561.84	-1881.67	  425.00
     44.6700	  608.00	  561.62	-1860.46	  424.99
     44.7700	  581.00	  561.70	-1887.53	  424.98
     44.8700	  605.00	  561.61	-1863.44	  424.97
     44.9700	  543.00	  561.56	-1925.40	  424.96
     45.0700	  543.00	  561.58	-1925.41	  424.95
     45.1700	  596.00	  561.61	-1872.45	  424.95
     45.2700	  547.00	  561.68	-1921.52	  424.94
     45.3700	  565.00	  561.78	-1903.62	  424.94
     45.4700	  591.00	  561.92	-1877.76	  424.93
     45.5700	  600.00	  562.08	-1868.92	  424.93
     45.6700	  568.00	  562.37	-1901.20	  424.93
     45.7700	  545.00	  562.60	-1924.43	  424.93
     45.8700	  549.00	  562.86	-1920.69	  424.92
     45.9700	  604.00	  563.15	-1865.99	  424.92
     46.0700	  571.00	  563.49	-1899.32	  424.93
     46.1700	  589.00	  563.86	-1881.70	  424.93
     46.2700	  563.00	  564.29	-1908.12	  424.93
     46.3700	  600.00	  564.86	-1871.70	  424.93
     46.4700	  583.00	  565.39	-1889.23	  424.93
     46.5700	  578.00	  565.81	-1894.64	  424.94
     46.6700	  520.00	  566.49	-1953.32	  424.94
     46.7700	  592.00	  567.26	-1882.10	  424.95
     46.8700	  560.00	  568.16	-1915.00	  424.96
     46.9700	  577.00	  569.21	-1899.05	  424.96
     47.0700	  580.00	  570.50	-1897.34	  424.97
     47.1700	  596.00	  572.13	-1882.97	  424.98
     47.2700	  601.00	  574.33	-1880.17	  424.99
     47.3700	  587.00	  577.45	-1897.29	  425.00
     47.4700	  548.00	  581.99	-1940.83	  425.01
     47.5700	  598.00	  588.58	-1897.42	  425.02
     47.6700	  609.00	  597.86	-1895.70	  425.03
     47.7700	  591.00	  610.18	-1926.02	  425.04
     47.8700	  576.00	  625.31	-1956.15	  425.05
     47.9700	  683.00	  642.00	-1865.84	  425.06
     48.0700	  631.00	  657.46	-1933.30	  425.08
     48.1700	  673.00	  667.70	-1901.54	  425.09
     48.2700	  634.00	  669.21	-1942.05	  425.11
     48.3700	  656.00	  662.39	-1913.22	  425.12
     48.4700	  673.00	  650.02	-1883.86	  425.14
     48.5700	  651.00	  636.82	-1892.65	  425.15
     48.6700	  571.00	  625.57	-1961.41	  425.17
     48.7700	  591.00	  617.57	-1933.40	  425.19
     48.8700	  585.00	  613.08	-1934.92	  425.20
     48.9700	  593.00	  611.86	-1925.70	  425.22
     49.0700	  528.00	  613.45	-1992.28	  425.24
     49.1700	  576.00	  617.45	-1948.29	  425.26
     49.2700	  596.00	  623.79	-1934.63	  425.28
     49.3700	  547.00	  632.85	-1992.68	  425.30
     49.4700	  638.00	  645.92	-1914.75	  425.32
     49.5700	  652.00	  666.08	-1920.92	  425.34
     49.6700	  694.00	  699.75	-1912.58	  425.36
     49.7700	  763.00	  758.76	-1902.60	  425.38
     49.8700	  846.00	  861.73	-1922.57	  425.40
     49.9700	  967.00	 1032.41	-1972.25	  425.42
     50.0700	 1249.00	 1292.38	-1950.22	  425.45
     50.1700	 1759.00	 1647.48	-1795.32	  425.47
     50.2700	 2196.00	 2071.78	-1782.62	  425.49
     50.3700	 2611.00	 2494.05	-1789.89	  425.52
     50.4700	 2812.00	 2799.07	-1893.90	  425.54
     50.5700	 2856.00	 2867.93	-1918.77	  425.56
     50.6700	 2666.00	 2666.53	-1907.36	  425.59
     50.7700	 2273.00	 2283.58	-1917.41	  425.61
     50.8700	 1725.00	 1850.50	-2032.34	  425.64
     50.9700	 1375.00	 1462.27	-1994.11	  425.66
     51.0700	 1092.00	 1164.86	-1979.70	  425.69
     51.1700	  918.00	  964.59	-1953.43	  425.72
     51.2700	  825.00	  843.86	-1925.70	  425.74
     51.3700	  724.00	  776.70	-1959.54	  425.77
     51.4700	  741.00	  739.30	-1905.14	  425.80
     51.5700	  739.00	  715.40	-1883.23	  425.82
     51.6700	  682.00	  696.71	-1921.55	  425.85
     51.7700	  663.00	  680.84	-1924.68	  425.88
     51.8700	  687.00	  667.79	-1887.63	  425.90
     51.9700	  634.00	  657.82	-1930.66	  425.93
     52.0700	  678.00	  650.75	-1879.59	  425.96
     52.1700	  651.00	  645.84	-1901.68	  425.99
     52.2700	  630.00	  642.05	-1918.88	  426.02
     52.3700	  673.00	  638.58	-1872.41	  426.05
     52.4700	  613.00	  635.46	-1929.30	  426.08
     52.5700	  678.00	  633.38	-1862.22	  426.11
     52.6700	  660.00	  633.23	-1880.07	  426.13
     52.7700	  675.00	  636.01	-1867.85	  426.16
     52.8700	  668.00	  643.03	-1881.87	  426.19
     52.9700	  700.00	  656.18	-1863.02	  426.22
     53.0700	  675.00	  678.08	-1909.92	  426.25
     53.1700	  675.00	  711.99	-1943.83	  426.28
     53.2700	  802.00	  761.21	-1866.05	  426.31
     53.3700	  843.00	  828.05	-1891.88	  426.34
     53.4700	  928.00	  912.22	-1891.06	  426.37
     53.5700	 1064.00	 1009.21	-1852.05	  426.40
     53.6700	 1135.00	 1107.86	-1879.70	  426.44
     53.7700	 1185.00	 1189.46	-1911.30	  426.47
     53.8700	 1301.00	 1230.79	-1836.63	  426.50
     53.9700	 1276.00	 1216.58	-1847.42	  426.53
     54.0700	 1168.00	 1152.15	-1890.99	  426.56
     54.1700	 1045.00	 1059.07	-1920.91	  426.59
     54.2700	  950.00	  959.72	-1916.55	  426.62
     54.3700	  916.00	  868.91	-1859.75	  426.65
     54.4700	  769.00	  794.02	-1931.86	  426.68
     54.5700	  702.00	  737.05	-1941.88	  426.71
     54.6700	  688.00	  696.61	-1915.45	  426.74
     54.7700	  687.00	  669.60	-1889.44	  426.78
     54.8700	  636.00	  652.46	-1923.30	  426.81
     54.9700	  613.00	  642.06	-1935.90	  426.84
     55.0700	  635.00	  636.08	-1907.92	  426.87
     55.1700	  573.00	  632.97	-1966.81	  426.90
     55.2700	  659.00	  631.83	-1879.67	  426.93
     55.3700	  648.00	  632.19	-1891.03	  426.96
     55.4700	  621.00	  633.83	-1919.67	  426.99
     55.5700	  666.00	  636.71	-1877.55	  427.02
     55.6700	  643.00	  640.91	-1904.75	  427.06
     55.7700	  656.00	  646.63	-1897.47	  427.09
     55.8700	  676.00	  654.30	-1885.14	  427.12
     55.9700	  626.00	  664.71	-1945.54	  427.15
     56.0700	  698.00	  679.37	-1888.21	  427.18
     56.1700	  726.00	  701.07	-1881.91	  427.21
     56.2700	  710.00	  734.59	-1931.43	  427.24
     56.3700	  770.00	  787.45	-1924.29	  427.27
     56.4700	  851.00	  870.11	-1925.95	  427.30
     56.5700	  963.00	  995.10	-1938.93	  427.33
     56.6700	 1118.00	 1174.10	-1962.94	  427.36
     56.7700	 1417.00	 1413.59	-1903.42	  427.39
     56.8700	 1734.00	 1708.94	-1881.78	  427.42
     56.9700	 2121.00	 2038.48	-1824.32	  427.45
     57.0700	 2412.00	 2358.33	-1853.17	  427.48
     57.1700	 2639.00	 2601.66	-1869.49	  427.51
     57.2700	 2613.00	 2696.12	-1989.96	  427.54
     57.3700	 2622.00	 2607.17	-1892.00	  427.57
     57.4700	 2439.00	 2367.30	-1835.14	  427.60
     57.5700	 1998.00	 2049.48	-1958.32	  427.62
     57.6700	 1613.00	 1721.71	-2015.55	  427.65
     57.7700	 1315.00	 1428.42	-2020.26	  427.68
     57.8700	 1093.00	 1191.56	-2005.40	  427.71
     57.9700	  975.00	 1016.33	-1948.17	  427.74
     58.0700	  880.00	  896.78	-1923.62	  427.77
     58.1700	  767.00	  822.32	-1962.15	  427.79
     58.2700	  796.00	  782.17	-1893.01	  427.82
     58.3700	  744.00	  768.36	-1931.20	  427.85
     58.4700	  807.00	  776.51	-1876.34	  427.87
     58.5700	  792.00	  805.02	-1919.85	  427.90
     58.6700	  862.00	  853.46	-1898.30	  427.93
     58.7700	  944.00	  920.56	-1883.40	  427.95
     58.8700	  993.00	 1002.38	-1916.22	  427.98
     58.9700	 1025.00	 1090.92	-1972.76	  428.01
     59.0700	 1194.00	 1174.38	-1887.21	  428.03
     59.1700	 1268.00	 1241.35	-1880.19	  428.06
     59.2700	 1245.00	 1286.55	-1948.39	  428.08
     59.3700	 1285.00	 1309.45	-1931.29	  428.11
     59.4700	 1251.00	 1309.00	-1964.84	  428.13
     59.5700	 1288.00	 1285.26	-1904.09	  428.15
     59.6700	 1309.00	 1245.74	-1843.58	  428.18
     59.7700	 1171.00	 1204.27	-1940.11	  428.20
     59.8700	 1239.00	 1173.87	-1841.71	  428.22
     59.9700	 1239.00	 1163.22	-1831.06	  428.25
     60.0700	 1309.00	 1178.37	-1776.20	  428.27
     60.1700	 1254.00	 1223.79	-1876.63	  428.29
     60.2700	 1428.00	 1299.72	-1778.55	  428.31
     60.3700	 1449.00	 1398.19	-1856.03	  428.34
     60.4700	 1537.00	 1500.77	-1870.61	  428.36
     60.5700	 1549.00	 1579.38	-1937.21	  428.38
     60.6700	 1546.00	 1603.50	-1964.33	  428.40
     60.7700	 1523.00	 1556.49	-1940.33	  428.42
     60.8700	 1460.00	 1447.89	-1894.73	  428.44
     60.9700	 1270.00	 1305.14	-1941.98	  428.46
     61.0700	 1127.00	 1156.27	-1936.11	  428.48
     61.1700	  999.00	 1021.35	-1929.19	  428.50
     61.2700	  920.00	  911.66	-1898.50	  428.51
     61.3700	  846.00	  831.37	-1892.21	  428.53
     61.4700	  756.00	  779.93	-1930.76	  428.55
     61.5700	  716.00	  754.74	-1945.58	  428.57
     61.6700	  815.00	  753.58	-1845.42	  428.58
     61.7700	  877.00	  775.95	-1805.79	  428.60
     61.8700	  863.00	  823.27	-1867.10	  428.62
     61.9700	  918.00	  897.69	-1886.53	  428.63
     62.0700	  987.00	 1000.08	-1919.92	  428.65
     62.1700	 1144.00	 1127.53	-1890.37	  428.66
     62.2700	 1327.00	 1271.26	-1851.10	  428.68
     62.3700	 1432.00	 1414.72	-1889.55	  428.69
     62.4700	 1539.00	 1533.22	-1901.06	  428.70
     62.5700	 1577.00	 1598.01	-1927.85	  428.72
     62.6700	 1573.00	 1588.94	-1922.78	  428.73
     62.7700	 1435.00	 1508.52	-1980.35	  428.74
     62.8700	 1330.00	 1379.93	-1956.77	  428.75
     62.9700	 1173.00	 1231.96	-1965.79	  428.76
     63.0700	 1084.00	 1087.58	-1910.42	  428.77
     63.1700	  863.00	  961.37	-2005.21	  428.78
     63.2700	  863.00	  860.25	-1904.09	  428.79
     63.3700	  791.00	  785.19	-1901.03	  428.80
     63.4700	  749.00	  733.32	-1891.16	  428.81
     63.5700	  744.00	  699.93	-1862.77	  428.82
     63.6700	  668.00	  680.21	-1919.04	  428.83
     63.7700	  649.00	  670.26	-1928.10	  428.84
     63.8700	  661.00	  667.78	-1913.62	  428.84
     63.9700	  690.00	  671.83	-1888.67	  428.85
     64.0700	  742.00	  682.91	-1847.74	  428.85
     64.1700	  656.00	  702.63	-1953.47	  428.86
     64.2700	  731.00	  733.42	-1909.25	  428.87
     64.3700	  821.00	  777.93	-1863.77	  428.87
     64.4700	  835.00	  837.96	-1909.80	  428.87
     64.5700	  952.00	  915.43	-1870.27	  428.88
     64.6700	 1043.00	 1008.33	-1872.16	  428.88
     64.7700	 1201.00	 1111.55	-1817.38	  428.88
     64.8700	 1208.00	 1215.52	-1914.36	  428.88
     64.9700	 1356.00	 1306.49	-1857.33	  428.88
     65.0700	 1341.00	 1369.35	-1935.19	  428.88
     65.1700	 1347.00	 1392.59	-1952.43	  428.88
     65.2700	 1376.00	 1371.57	-1902.41	  428.88
     65.3700	 1320.00	 1311.40	-1898.24	  428.88
     65.4700	 1154.00	 1224.92	-1977.76	  428.88
     65.5700	 1064.00	 1127.57	-1970.41	  428.88
     65.6700	 1002.00	 1032.05	-1936.88	  428.88
     65.7700	  962.00	  945.78	-1890.61	  428.87
     65.8700	  761.00	  872.42	-2018.25	  428.87
     65.9700	  742.00	  812.71	-1977.55	  428.87
     66.0700	  773.00	  765.92	-1899.76	  428.86
     66.1700	  744.00	  730.51	-1893.35	  428.85
     66.2700	  656.00	  704.55	-1955.39	  428.85
     66.3700	  620.00	  686.07	-1972.91	  428.84
     66.4700	  683.00	  673.21	-1897.05	  428.83
     66.5700	  634.00	  664.71	-1937.55	  428.83
     66.6700	  583.00	  659.63	-1983.47	  428.82
     66.7700	  634.00	  657.41	-1930.25	  428.81
     66.8700	  665.00	  657.74	-1899.58	  428.80
     66.9700	  702.00	  660.70	-1865.54	  428.79
     67.0700	  624.00	  666.58	-1949.42	  428.78
     67.1700	  688.00	  676.13	-1894.96	  428.77
     67.2700	  637.00	  691.10	-1960.93	  428.75
     67.3700	  743.00	  714.21	-1878.05	  428.74
     67.4700	  786.00	  749.51	-1870.35	  428.73
     67.5700	  763.00	  802.48	-1946.31	  428.71
     67.6700	  863.00	  879.71	-1923.55	  428.70
     67.7700	  995.00	  988.11	-1899.95	  428.68
     67.8700	 1213.00	 1133.45	-1827.28	  428.67
     67.9700	 1348.00	 1318.25	-1877.08	  428.65
     68.0700	 1529.00	 1539.65	-1917.48	  428.63
     68.1700	 1752.00	 1787.30	-1942.14	  428.62
     68.2700	 2068.00	 2041.61	-1880.44	  428.60
     68.3700	 2324.00	 2272.76	-1855.60	  428.58
     68.4700	 2461.00	 2442.38	-1888.22	  428.56
     68.5700	 2490.00	 2513.21	-1930.04	  428.54
     68.6700	 2423.00	 2466.73	-1950.57	  428.52
     68.7700	 2222.00	 2315.21	-2000.05	  428.49
     68.8700	 2074.00	 2093.51	-1926.35	  428.47
     68.9700	 1756.00	 1841.06	-1991.89	  428.45
     69.0700	 1576.00	 1589.85	-1920.69	  428.43
     69.1700	 1409.00	 1361.51	-1859.35	  428.40
     69.2700	 1160.00	 1168.30	-1915.14	  428.38
     69.3700	 1048.00	 1014.43	-1873.27	  428.35
     69.4700	  939.00	  898.35	-1866.19	  428.32
     69.5700	  859.00	  814.78	-1862.62	  428.30
     69.6700	  829.00	  756.90	-1834.74	  428.27
     69.7700	  790.00	  717.92	-1834.75	  428.24
     69.8700	  756.00	  692.02	-1842.86	  428.21
     69.9700	  702.00	  674.82	-1879.66	  428.18
     70.0700	  669.00	  663.21	-1901.05	  428.15
     70.1700	  657.00	  655.23	-1905.07	  428.12
     70.2700	  685.00	  649.67	-1871.51	  428.09
     70.3700	  661.00	  645.84	-1891.68	  428.05
     70.4700	  666.00	  643.36	-1884.20	  428.02
     70.5700	  684.00	  642.06	-1864.90	  427.99
     70.6700	  685.00	  641.90	-1863.74	  427.95
     70.7700	  661.00	  642.95	-1888.78	  427.92
     70.8700	  672.00	  645.45	-1880.28	  427.88
     70.9700	  648.00	  649.65	-1908.49	  427.84
     71.0700	  710.00	  656.74	-1853.58	  427.81
     71.1700	  730.00	  667.78	-1844.62	  427.77
     71.2700	  662.00	  684.62	-1929.46	  427.73
     71.3700	  751.00	  709.92	-1865.75	  427.69
     71.4700	  730.00	  747.04	-1923.88	  427.65
     71.5700	  802.00	  799.96	-1904.80	  427.61
     71.6700	  899.00	  872.71	-1880.55	  427.57
     71.7700	 1015.00	  968.67	-1860.50	  427.52
     71.8700	 1120.00	 1089.52	-1876.36	  427.48
     71.9700	 1213.00	 1234.07	-1927.91	  427.44
     72.0700	 1303.00	 1397.29	-2001.13	  427.39
     72.1700	 1549.00	 1569.31	-1927.15	  427.35
     72.2700	 1747.00	 1734.76	-1894.60	  427.30
     72.3700	 1857.00	 1873.76	-1923.60	  427.26
     72.4700	 2013.00	 1961.36	-1855.19	  427.21
     72.5700	 2081.00	 1979.89	-1805.73	  427.16
     72.6700	 1834.00	 1924.95	-1997.78	  427.11
     72.7700	 1804.00	 1808.90	-1911.74	  427.06
     72.8700	 1717.00	 1653.82	-1843.66	  427.01
     72.9700	 1467.00	 1482.38	-1922.22	  426.96
     73.0700	 1239.00	 1312.65	-1980.49	  426.91
     73.1700	 1122.00	 1157.14	-1941.98	  426.86
     73.2700	 1011.00	 1023.18	-1919.01	  426.80
     73.3700	  898.00	  913.65	-1922.49	  426.75
     73.4700	  824.00	  828.21	-1911.05	  426.69
     73.5700	  762.00	  764.21	-1909.05	  426.64
     73.6700	  720.00	  717.91	-1904.75	  426.58
     73.7700	  651.00	  685.31	-1941.15	  426.52
     73.8700	  650.00	  662.76	-1919.60	  426.47
     73.9700	  683.00	  647.32	-1871.16	  426.41
     74.0700	  629.00	  636.80	-1914.63	  426.35
     74.1700	  672.00	  629.17	-1864.01	  426.29
     74.2700	  639.00	  624.53	-1892.36	  426.23
     74.3700	  622.00	  621.73	-1906.56	  426.17
     74.4700	  689.00	  620.38	-1838.22	  426.11
     74.5700	  616.00	  620.20	-1911.04	  426.04
     74.6700	  606.00	  620.93	-1921.77	  425.98
     74.7700	  655.00	  622.27	-1874.11	  425.91
     74.8700	  644.00	  623.88	-1886.72	  425.85
     74.9700	  650.00	  625.32	-1882.16	  425.78
     75.0700	  642.00	  626.14	-1890.98	  425.72
     75.1700	  673.00	  625.91	-1859.75	  425.65
     75.2700	  672.00	  624.65	-1859.49	  425.58
     75.3700	  682.00	  622.54	-1847.38	  425.51
     75.4700	  722.00	  620.08	-1804.91	  425.44
     75.5700	  696.00	  617.89	-1828.73	  425.37
     75.6700	  672.00	  616.64	-1851.48	  425.30
     75.7700	  641.00	  617.03	-1882.86	  425.23
     75.8700	  629.00	  619.78	-1897.62	  425.16
     75.9700	  635.00	  625.61	-1897.45	  425.09
     76.0700	  624.00	  635.49	-1918.32	  425.01
     76.1700	  674.00	  650.09	-1882.92	  424.94
     76.2700	  676.00	  670.02	-1900.86	  424.86
     76.3700	  682.00	  695.56	-1920.40	  424.79
     76.4700	  756.00	  726.51	-1877.34	  424.71
     76.5700	  792.00	  761.97	-1876.81	  424.63
     76.6700	  825.00	  800.29	-1882.13	  424.55
     76.7700	  832.00	  838.85	-1913.68	  424.47
     76.8700	  853.00	  874.03	-1927.87	  424.40
     76.9700	  872.00	  901.44	-1936.28	  424.31
     77.0700	  835.00	  916.64	-1988.48	  424.23
     77.1700	  882.00	  916.69	-1941.52	  424.15
     77.2700	  908.00	  901.48	-1900.32	  424.07
     77.3700	  836.00	  873.84	-1944.68	  423.99
     77.4700	  826.00	  838.14	-1918.98	  423.90
     77.5700	  817.00	  798.81	-1888.64	  423.82
     77.6700	  750.00	  759.44	-1916.28	  423.73
     77.7700	  705.00	  722.67	-1924.51	  423.65
     77.8700	  744.00	  689.97	-1852.80	  423.56
     77.9700	  678.00	  662.57	-1891.41	  423.47
     78.0700	  633.00	  640.45	-1914.29	  423.38
     78.1700	  609.00	  623.27	-1921.10	  423.29
     78.2700	  609.00	  610.36	-1908.20	  423.20
     78.3700	  592.00	  600.96	-1915.79	  423.11
     78.4700	  628.00	  594.26	-1873.10	  423.02
     78.5700	  564.00	  589.57	-1932.41	  422.93
     78.6700	  616.00	  586.32	-1877.16	  422.84
     78.7700	  570.00	  584.03	-1920.86	  422.74
     78.8700	  589.00	  582.50	-1900.33	  422.65
     78.9700	  610.00	  581.48	-1878.31	  422.55
     79.0700	  589.00	  580.84	-1898.68	  422.46
     79.1700	  595.00	  580.53	-1892.37	  422.36
     79.2700	  572.00	  580.51	-1915.34	  422.27
     79.3700	  589.00	  580.77	-1898.61	  422.17
     79.4700	  608.00	  581.35	-1880.19	  422.07
     79.5700	  575.00	  582.29	-1914.13	  421.97
     79.6700	  567.00	  583.65	-1923.49	  421.87
     79.7700	  612.00	  585.53	-1880.37	  421.77
     79.8700	  576.00	  588.08	-1918.91	  421.67
     79.9700	  594.00	  591.51	-1904.35	  421.57
     80.0700	  620.00	  596.17	-1883.00	  421.46
     80.1700	  605.00	  602.51	-1904.35	  421.36
     80.2700	  606.00	  611.19	-1912.03	  421.26
     80.3700	  609.00	  623.06	-1920.90	  421.15
     80.4700	  642.00	  639.14	-1903.97	  421.05
     80.5700	  667.00	  660.36	-1900.20	  420.94
     80.6700	  703.00	  688.36	-1892.20	  420.83
     80.7700	  777.00	  723.98	-1853.82	  420.73
     80.8700	  811.00	  767.88	-1863.72	  420.62
     80.9700	  842.00	  820.08	-1884.91	  420.51
     81.0700	  895.00	  879.59	-1891.42	  420.40
     81.1700	  946.00	  944.25	-1905.09	  420.29
     81.2700	 1034.00	 1010.58	-1883.42	  420.18
     81.3700	 1076.00	 1073.87	-1904.71	  420.07
     81.4700	 1120.00	 1128.66	-1915.50	  419.96
     81.5700	 1130.00	 1169.87	-1946.71	  419.84
     81.6700	 1202.00	 1194.03	-1898.87	  419.73
     81.7700	 1249.00	 1199.84	-1857.68	  419.62
     81.8700	 1200.00	 1188.00	-1894.84	  419.50
     81.9700	 1145.00	 1160.69	-1922.53	  419.39
     82.0700	 1122.00	 1121.26	-1906.10	  419.27
     82.1700	 1032.00	 1073.65	-1948.49	  419.15
     82.2700	  967.00	 1021.65	-1961.49	  419.04
     82.3700	  951.00	  968.54	-1924.38	  418.92
     82.4700	  890.00	  916.98	-1933.82	  418.80
     82.5700	  903.00	  868.99	-1872.83	  418.68
     82.6700	  830.00	  825.80	-1902.63	  418.56
     82.7700	  749.00	  787.78	-1945.61	  418.44
     82.8700	  745.00	  754.65	-1916.49	  418.32
     82.9700	  728.00	  725.84	-1904.68	  418.20
     83.0700	  645.00	  700.77	-1962.61	  418.08
     83.1700	  650.00	  679.09	-1935.93	  417.95
     83.2700	  621.00	  660.65	-1946.49	  417.83
     83.3700	  605.00	  645.39	-1947.23	  417.71
     83.4700	  640.00	  633.27	-1900.11	  417.58
     83.5700	  598.00	  624.25	-1933.09	  417.46
     83.6700	  576.00	  618.23	-1949.07	  417.33
     83.7700	  569.00	  615.08	-1952.92	  417.20
     83.8700	  601.00	  614.54	-1920.38	  417.08
     83.9700	  572.00	  616.27	-1951.10	  416.95
     84.0700	  632.00	  619.79	-1894.62	  416.82
     84.1700	  625.00	  624.52	-1906.35	  416.69
     84.2700	  615.00	  629.64	-1921.48	  416.56
     84.3700	  608.00	  634.57	-1933.41	  416.43
     84.4700	  641.00	  638.35	-1904.19	  416.30
     84.5700	  633.00	  640.14	-1913.97	  416.17
     84.6700	  641.00	  639.57	-1905.41	  416.04
     84.7700	  638.00	  636.48	-1905.32	  415.91
     84.8700	  604.00	  631.21	-1934.04	  415.78
     84.9700	  599.00	  624.36	-1932.20	  415.64
     85.0700	  628.00	  616.66	-1895.50	  415.51
     85.1700	  582.00	  608.75	-1933.59	  415.37
     85.2700	  621.00	  601.20	-1887.04	  415.24
     85.3700	  581.00	  594.42	-1920.25	  415.10
     85.4700	  581.00	  588.71	-1914.55	  414.97
     85.5700	  568.00	  584.27	-1923.11	  414.83
     85.6700	  604.00	  581.21	-1884.05	  414.69
     85.7700	  565.00	  579.57	-1921.40	  414.56
     85.8700	  615.00	  579.34	-1871.18	  414.42
     85.9700	  556.00	  580.51	-1931.35	  414.28
     86.0700	  579.00	  583.04	-1910.88	  414.14
     86.1700	  613.00	  586.88	-1880.72	  414.00
     86.2700	  622.00	  591.95	-1876.79	  413.86
     86.3700	  566.00	  598.17	-1939.01	  413.72
     86.4700	  613.00	  605.39	-1899.22	  413.58
     86.5700	  555.00	  613.41	-1965.25	  413.44
     86.6700	  585.00	  622.01	-1943.85	  413.30
     86.7700	  637.00	  630.88	-1900.71	  413.15
     86.8700	  663.00	  639.71	-1883.54	  413.01
     86.9700	  639.00	  648.20	-1916.03	  412.87
     87.0700	  621.00	  656.19	-1942.03	  412.72
     87.1700	  629.00	  663.74	-1941.58	  412.58
     87.2700	  623.00	  671.09	-1954.93	  412.43
     87.3700	  666.00	  678.55	-1919.38	  412.29
     87.4700	  664.00	  686.31	-1929.15	  412.14
     87.5700	  666.00	  694.40	-1935.24	  412.00
     87.6700	  669.00	  702.55	-1940.38	  411.85
     87.7700	  672.00	  710.22	-1945.05	  411.70
     87.8700	  705.00	  716.62	-1918.46	  411.56
     87.9700	  737.00	  720.80	-1890.64	  411.41
     88.0700	  708.00	  721.88	-1920.71	  411.26
     88.1700	  718.00	  719.27	-1908.11	  411.11
     88.2700	  684.00	  712.96	-1935.79	  410.96
     88.3700	  716.00	  703.45	-1894.29	  410.81
     88.4700	  676.00	  691.63	-1922.46	  410.67
     88.5700	  672.00	  678.48	-1913.31	  410.51
     88.6700	  666.00	  664.96	-1905.79	  410.36
     88.7700	  656.00	  651.92	-1902.76	  410.21
     88.8700	  645.00	  639.63	-1901.47	  410.06
     88.9700	  596.00	  629.47	-1940.31	  409.91
     89.0700	  634.00	  621.37	-1894.20	  409.76
     89.1700	  669.00	  615.47	-1853.30	  409.61
     89.2700	  665.00	  611.77	-1853.61	  409.45
     89.3700	  628.00	  610.12	-1888.96	  409.30
     89.4700	  625.00	  610.22	-1892.05	  409.15
     89.5700	  636.00	  611.65	-1882.49	  408.99
     89.6700	  634.00	  613.94	-1886.78	  408.84
     89.7700	  635.00	  616.52	-1888.36	  408.69
     89.8700	  667.00	  618.82	-1858.65	  408.53
     89.9700	  631.00	  620.26	-1896.09	  408.38
     90.0700	  662.00	  620.40	-1865.23	  408.22
     90.1700	  638.00	  619.00	-1887.84	  408.07
     90.2700	  647.00	  616.08	-1875.92	  407.91
     90.3700	  629.00	  611.88	-1889.72	  407.75
     90.4700	  605.00	  606.77	-1908.61	  407.60
     90.5700	  597.00	  601.16	-1910.99	  407.44
     90.6700	  626.00	  595.40	-1876.24	  407.29
     90.7700	  673.00	  589.81	-1823.64	  407.13
     90.8700	  577.00	  584.62	-1914.46	  406.97
     90.9700	  585.00	  580.01	-1901.85	  406.81
     91.0700	  647.00	  576.07	-1835.91	  406.66
     91.1700	  573.00	  572.85	-1906.69	  406.50
     91.2700	  580.00	  570.34	-1897.18	  406.34
     91.3700	  592.00	  568.50	-1883.34	  406.18
     91.4700	  553.00	  567.29	-1921.13	  406.02
     91.5700	  577.00	  566.65	-1896.49	  405.86
     91.6700	  540.00	  566.54	-1933.38	  405.71
     91.7700	  573.00	  566.94	-1900.77	  405.55
     91.8700	  606.00	  567.86	-1868.70	  405.39
     91.9700	  598.00	  569.36	-1878.19	  405.23
     92.0700	  590.00	  571.52	-1888.36	  405.07
     92.1700	  568.00	  574.47	-1913.31	  404.91
     92.2700	  575.00	  578.40	-1910.24	  404.75
     92.3700	  565.00	  583.49	-1925.33	  404.59
     92.4700	  588.00	  589.97	-1908.81	  404.43
     92.5700	  593.00	  598.07	-1911.91	  404.27
     92.6700	  579.00	  608.00	-1935.83	  404.11
     92.7700	  581.00	  619.92	-1945.76	  403.95
     92.8700	  638.00	  633.94	-1902.78	  403.79
     92.9700	  648.00	  650.06	-1908.90	  403.63
     93.0700	  650.00	  668.18	-1925.02	  403.47
     93.1700	  677.00	  688.05	-1917.89	  403.30
     93.2700	  712.00	  709.28	-1904.12	  403.14
     93.3700	  766.00	  731.32	-1872.16	  402.98
     93.4700	  729.00	  753.45	-1931.29	  402.82
     93.5700	  689.00	  774.86	-1992.70	  402.66
     93.6700	  781.00	  794.72	-1920.55	  402.50
     93.7700	  732.00	  812.35	-1987.19	  402.34
     93.8700	  738.00	  827.47	-1996.31	  402.18
     93.9700	  808.00	  840.21	-1939.05	  402.02
     94.0700	  812.00	  851.12	-1945.95	  401.85
     94.1700	  904.00	  860.88	-1863.71	  401.69
     94.2700	  862.00	  870.18	-1915.02	  401.53
     94.3700	  838.00	  879.24	-1948.08	  401.37
     94.4700	  887.00	  889.03	-1908.87	  401.21
     94.5700	  933.00	  899.48	-1873.32	  401.05
     94.6700	  950.00	  910.83	-1867.67	  400.89
     94.7700	  940.00	  923.32	-1890.16	  400.73
     94.8700	  910.00	  937.11	-1933.95	  400.56
     94.9700	  972.00	  952.12	-1886.96	  400.40
     95.0700	 1000.00	  967.86	-1874.69	  400.24
     95.1700	  918.00	  983.37	-1972.21	  400.08
     95.2700	  944.00	  997.27	-1960.11	  399.92
     95.3700	 1016.00	 1007.84	-1898.68	  399.76
     95.4700	 1045.00	 1013.26	-1875.09	  399.60
     95.5700	  980.00	 1011.98	-1938.81	  399.44
     95.6700	 1035.00	 1003.13	-1874.97	  399.28
     95.7700	 1003.00	  986.79	-1890.63	  399.12
     95.8700	  960.00	  963.98	-1910.82	  398.96
     95.9700	  915.00	  936.42	-1928.25	  398.80
     96.0700	  922.00	  906.19	-1891.03	  398.64
     96.1700	  883.00	  875.49	-1899.33	  398.48
     96.2700	  821.00	  846.42	-1932.26	  398.32
     96.3700	  828.00	  820.90	-1899.74	  398.16
     96.4700	  869.00	  800.67	-1838.50	  398.00
     96.5700	  799.00	  787.20	-1895.04	  397.84
     96.6700	  855.00	  781.76	-1833.59	  397.68
     96.7700	  797.00	  785.32	-1895.15	  397.53
     96.8700	  782.00	  798.63	-1923.47	  397.37
     96.9700	  798.00	  822.22	-1931.05	  397.21
     97.0700	  858.00	  856.31	-1905.15	  397.05
     97.1700	  903.00	  900.86	-1904.70	  396.90
     97.2700	  951.00	  955.45	-1911.29	  396.74
     97.3700	 1033.00	 1019.23	-1893.07	  396.58
     97.4700	 1097.00	 1090.86	-1900.70	  396.42
     97.5700	 1090.00	 1168.43	-1985.27	  396.27
     97.6700	 1292.00	 1249.47	-1864.31	  396.11
     97.7700	 1281.00	 1330.82	-1956.65	  395.96
     97.8700	 1376.00	 1408.72	-1939.56	  395.80
     97.9700	 1488.00	 1478.92	-1897.76	  395.65
     98.0700	 1519.00	 1536.90	-1924.73	  395.49
     98.1700	 1593.00	 1578.42	-1892.26	  395.34
     98.2700	 1596.00	 1600.20	-1911.04	  395.18
     98.3700	 1578.00	 1600.67	-1929.51	  395.03
     98.4700	 1557.00	 1580.32	-1930.15	  394.88
     98.5700	 1533.00	 1541.49	-1915.33	  394.72
     98.6700	 1453.00	 1487.83	-1941.67	  394.57
     98.7700	 1388.00	 1423.58	-1942.42	  394.42
     98.8700	 1343.00	 1353.03	-1916.87	  394.27
     98.9700	 1224.00	 1280.24	-1963.07	  394.12
     99.0700	 1245.00	 1208.79	-1870.62	  393.97
     99.1700	 1124.00	 1141.79	-1924.62	  393.82
     99.2700	 1119.00	 1081.87	-1869.70	  393.67
     99.3700	  984.00	 1031.19	-1954.02	  393.52
     99.4700	  979.00	  991.49	-1919.32	  393.37
     99.5700	 1004.00	  964.10	-1866.94	  393.22
     99.6700	  966.00	  950.03	-1890.86	  393.07
     99.7700	  954.00	  949.92	-1902.75	  392.93
     99.8700	  973.00	  964.15	-1897.99	  392.78
     99.9700	  984.00	  992.78	-1915.62	  392.63
    100.0700	 1066.00	 1035.60	-1876.44	  392.49
    100.1700	 1063.00	 1092.05	-1935.89	  392.34
    100.2700	 1192.00	 1161.20	-1876.04	  392.20
    100.3700	 1298.00	 1241.77	-1850.60	  392.05
    100.4700	 1384.00	 1331.92	-1854.76	  391.91
    100.5700	 1452.00	 1429.38	-1884.22	  391.77
    100.6700	 1484.00	 1531.28	-1954.12	  391.63
    100.7700	 1635.00	 1634.13	-1905.97	  391.49
    100.8700	 1765.00	 1734.31	-1876.15	  391.34
    100.9700	 1804.00	 1827.76	-1930.60	  391.20
    101.0700	 2031.00	 1910.78	-1786.61	  391.07
    101.1700	 1989.00	 1980.27	-1898.11	  390.93
    101.2700	 1964.00	 2034.07	-1976.91	  390.79
    101.3700	 1972.00	 2070.89	-2005.72	  390.65
    101.4700	 2085.00	 2090.03	-1911.87	  390.51
    101.5700	 2032.00	 2091.19	-1966.03	  390.38
    101.6700	 2037.00	 2074.41	-1944.25	  390.24
    101.7700	 2112.00	 2040.30	-1835.14	  390.11
    101.8700	 2034.00	 1990.38	-1863.22	  389.98
    101.9700	 2041.00	 1927.28	-1793.12	  389.84
    102.0700	 1861.00	 1854.56	-1900.40	  389.71
    102.1700	 1882.00	 1776.35	-1801.19	  389.58
    102.2700	 1683.00	 1696.74	-1920.58	  389.45
    102.3700	 1663.00	 1619.35	-1863.19	  389.32
    102.4700	 1573.00	 1547.06	-1880.90	  389.19
    102.5700	 1541.00	 1481.88	-1847.72	  389.06
    102.6700	 1541.00	 1424.99	-1790.83	  388.93
    102.7700	 1410.00	 1376.76	-1873.60	  388.81
    102.8700	 1369.00	 1336.78	-1874.62	  388.68
    102.9700	 1347.00	 1304.04	-1863.88	  388.56
    103.0700	 1261.00	 1276.95	-1922.79	  388.43
    103.1700	 1193.00	 1253.54	-1967.38	  388.31
    103.2700	 1259.00	 1231.61	-1879.44	  388.19
    103.3700	 1176.00	 1208.98	-1939.82	  388.07
    103.4700	 1184.00	 1183.88	-1906.72	  387.95
    103.5700	 1169.00	 1155.11	-1892.95	  387.83
    103.6700	 1091.00	 1122.22	-1938.06	  387.71
    103.7700	 1074.00	 1085.46	-1918.30	  387.59
    103.8700	 1002.00	 1045.57	-1950.41	  387.48
    103.9700	 1048.00	 1003.60	-1862.44	  387.36
    104.0700	  980.00	  960.67	-1887.51	  387.25
    104.1700	  858.00	  917.86	-1966.69	  387.14
    104.2700	  880.00	  876.15	-1902.98	  387.02
    104.3700	  856.00	  836.36	-1887.20	  386.91
    104.4700	  792.00	  799.17	-1914.01	  386.80
    104.5700	  791.00	  765.06	-1880.89	  386.70
    104.6700	  740.00	  734.33	-1901.17	  386.59
    104.7700	  718.00	  707.16	-1896.00	  386.48
    104.8700	  674.00	  683.55	-1916.39	  386.38
    104.9700	  713.00	  663.38	-1857.22	  386.27
    105.0700	  662.00	  646.45	-1891.29	  386.17
    105.1700	  627.00	  632.47	-1912.31	  386.07
    105.2700	  614.00	  621.09	-1913.93	  385.97
    105.3700	  644.00	  612.08	-1874.92	  385.87
    105.4700	  653.00	  605.09	-1858.92	  385.77
    105.5700	  610.00	  599.81	-1896.65	  385.67
    105.6700	  624.00	  596.02	-1878.86	  385.58
    105.7700	  642.00	  593.50	-1858.34	  385.48
    105.8700	  592.00	  592.10	-1906.94	  385.39
    105.9700	  597.00	  591.68	-1901.51	  385.30
    106.0700	  591.00	  592.24	-1908.08	  385.20
    106.1700	  600.00	  593.72	-1900.56	  385.12
    106.2700	  597.00	  596.13	-1905.97	  385.03
    106.3700	  591.00	  599.51	-1915.35	  384.94
    106.4700	  651.00	  603.90	-1859.74	  384.86
    106.5700	  642.00	  609.39	-1874.22	  384.77
    106.6700	  616.00	  616.02	-1906.86	  384.69
    106.7700	  615.00	  623.87	-1915.71	  384.61
    106.8700	  628.00	  632.96	-1911.79	  384.53
    106.9700	  588.00	  643.27	-1962.11	  384.45
    107.0700	  650.00	  654.75	-1911.58	  384.37
    107.1700	  690.00	  667.28	-1884.11	  384.30
    107.2700	  705.00	  680.67	-1882.51	  384.22
    107.3700	  711.00	  694.69	-1890.52	  384.15
    107.4700	  669.00	  709.01	-1946.85	  384.08
    107.5700	  733.00	  723.28	-1897.12	  384.01
    107.6700	  772.00	  737.06	-1871.90	  383.94
    107.7700	  754.00	  749.91	-1902.74	  383.87
    107.8700	  717.00	  761.35	-1951.18	  383.81
    107.9700	  733.00	  770.95	-1944.79	  383.75
    108.0700	  793.00	  778.39	-1892.23	  383.68
    108.1700	  795.00	  783.46	-1895.30	  383.62
    108.2700	  698.00	  786.24	-1995.08	  383.56
    108.3700	  727.00	  786.93	-1966.77	  383.51
    108.4700	  771.00	  785.91	-1921.75	  383.45
    108.5700	  730.00	  783.67	-1960.51	  383.40
    108.6700	  777.00	  780.72	-1910.56	  383.35
    108.7700	  725.00	  777.53	-1959.37	  383.30
    108.8700	  674.00	  774.51	-2007.34	  383.25
    108.9700	  784.00	  771.96	-1894.80	  383.20
    109.0700	  748.00	  770.07	-1928.91	  383.16
    109.1700	  707.00	  768.93	-1968.77	  383.11
    109.2700	  748.00	  768.48	-1927.32	  383.07
    109.3700	  743.00	  768.57	-1932.41	  383.03
    109.4700	  711.00	  768.92	-1964.76	  382.99
    109.5700	  720.00	  769.18	-1956.02	  382.96
    109.6700	  735.00	  768.94	-1940.78	  382.92
    109.7700	  745.00	  767.78	-1929.62	  382.89
    109.8700	  677.00	  765.31	-1995.15	  382.86
    109.9700	  691.00	  761.27	-1977.11	  382.83
    110.0700	  761.00	  755.53	-1901.37	  382.80
    110.1700	  743.00	  748.11	-1911.94	  382.78
    110.2700	  730.00	  739.16	-1916.00	  382.75
    110.3700	  702.00	  728.99	-1933.82	  382.73
    110.4700	  734.00	  717.89	-1890.73	  382.71
    110.5700	  699.00	  706.22	-1914.06	  382.69
    110.6700	  712.00	  694.30	-1889.14	  382.68
    110.7700	  638.00	  682.44	-1951.28	  382.67
    110.8700	  679.00	  670.91	-1898.75	  382.65
    110.9700	  683.00	  659.93	-1883.77	  382.64
    111.0700	  640.00	  649.69	-1916.53	  382.64
    111.1700	  697.00	  640.34	-1850.17	  382.63
    111.2700	  654.00	  631.97	-1884.80	  382.63
    111.3700	  601.00	  624.64	-1930.48	  382.63
    111.4700	  595.00	  618.40	-1930.23	  382.63
    111.5700	  611.00	  613.21	-1909.05	  382.63
    111.6700	  597.00	  609.06	-1918.90	  382.64
    111.7700	  613.00	  605.89	-1899.72	  382.65
    111.8700	  639.00	  603.61	-1871.44	  382.65
    111.9700	  594.00	  602.14	-1914.98	  382.67
    112.0700	  547.00	  601.40	-1961.23	  382.68
    112.1700	  565.00	  601.27	-1943.11	  382.70
    112.2700	  600.00	  601.68	-1908.52	  382.72
    112.3700	  612.00	  602.53	-1897.36	  382.74
    112.4700	  598.00	  603.72	-1912.56	  382.76
    112.5700	  614.00	  605.20	-1898.03	  382.79
    112.6700	  589.00	  606.88	-1924.72	  382.81
    112.7700	  623.00	  608.72	-1892.56	  382.84
    112.8700	  585.00	  610.69	-1932.53	  382.88
    112.9700	  586.00	  612.76	-1933.60	  382.91
    113.0700	  614.00	  614.94	-1907.78	  382.95
    113.1700	  586.00	  617.23	-1938.07	  382.99
    113.2700	  617.00	  619.68	-1909.52	  383.03
    113.3700	  630.00	  622.32	-1899.16	  383.07
    113.4700	  557.00	  625.21	-1975.05	  383.12
    113.5700	  652.00	  628.43	-1883.27	  383.17
    113.6700	  586.00	  632.05	-1952.88	  383.22
    113.7700	  582.00	  636.17	-1961.01	  383.28
    113.8700	  629.00	  640.92	-1918.76	  383.33
    113.9700	  657.00	  646.47	-1896.30	  383.39
    114.0700	  648.00	  653.01	-1911.84	  383.45
    114.1700	  651.00	  660.79	-1916.63	  383.52
    114.2700	  664.00	  670.16	-1913.00	  383.59
    114.3700	  690.00	  681.53	-1898.36	  383.66
    114.4700	  670.00	  695.42	-1932.26	  383.73
    114.5700	  754.00	  712.51	-1865.35	  383.80
    114.6700	  732.00	  733.62	-1908.46	  383.88
    114.7700	  747.00	  759.76	-1919.60	  383.96
    114.8700	  842.00	  792.16	-1857.00	  384.05
    114.9700	  926.00	  832.27	-1813.11	  384.13
    115.0700	  953.00	  881.77	-1835.61	  384.22
    115.1700	  994.00	  942.59	-1855.42	  384.31
    115.2700	 1081.00	 1016.89	-1842.73	  384.41
    115.3700	 1150.00	 1107.06	-1863.90	  384.50
    115.4700	 1347.00	 1215.59	-1775.43	  384.60
    115.5700	 1458.00	 1345.09	-1793.93	  384.71
    115.6700	 1588.00	 1498.09	-1816.93	  384.81
    115.7700	 1800.00	 1677.04	-1783.88	  384.92
    115.8700	 1977.00	 1884.11	-1813.95	  385.03
    115.9700	 2247.00	 2120.96	-1780.79	  385.15
    116.0700	 2571.00	 2388.65	-1724.48	  385.26
    116.1700	 2820.00	 2687.39	-1774.23	  385.38
    116.2700	 3194.00	 3016.53	-1729.37	  385.51
    116.3700	 3511.00	 3374.30	-1770.14	  385.63
    116.4700	 3984.00	 3757.62	-1680.46	  385.76
    116.5700	 4299.00	 4162.13	-1769.97	  385.90
    116.6700	 4607.00	 4582.04	-1881.88	  386.03
    116.7700	 4835.00	 5010.44	-2082.27	  386.17
    116.8700	 5367.00	 5439.04	-1978.88	  386.31
    116.9700	 5794.00	 5858.33	-1971.16	  386.46
    117.0700	 5970.00	 6257.82	-2194.66	  386.60
    117.1700	 6403.00	 6626.31	-2130.15	  386.75
    117.2700	 6864.00	 6952.36	-1995.20	  386.91
    117.3700	 7102.00	 7224.77	-2029.61	  387.07
    117.4700	 7208.00	 7433.22	-2132.05	  387.23
    117.5700	 7453.00	 7569.30	-2023.14	  387.39
    117.6700	 7347.00	 7627.35	-2187.19	  387.56
    117.7700	 7336.00	 7605.13	-2175.97	  387.73
    117.8700	 7410.00	 7504.07	-2000.91	  387.90
    117.9700	 7222.00	 7329.09	-2013.93	  388.08
    118.0700	 6939.00	 7088.02	-2055.85	  388.26
    118.1700	 6657.00	 6790.75	-2040.58	  388.44
    118.2700	 6385.00	 6448.21	-1970.05	  388.63
    118.3700	 5895.00	 6071.68	-2083.52	  388.82
    118.4700	 5562.00	 5672.31	-2017.15	  389.01
    118.5700	 5143.00	 5260.53	-2024.36	  389.21
    118.6700	 5003.00	 4845.88	-1749.72	  389.41
    118.7700	 4546.00	 4436.64	-1797.48	  389.62
    118.8700	 4217.00	 4039.80	-1729.64	  389.82
    118.9700	 3838.00	 3661.17	-1730.01	  390.03
    119.0700	 3469.00	 3305.18	-1743.02	  390.25
    119.1700	 3113.00	 2975.01	-1768.85	  390.47
    119.2700	 2916.00	 2672.56	-1663.40	  390.69
    119.3700	 2569.00	 2398.69	-1736.53	  390.91
    119.4700	 2365.00	 2153.44	-1695.28	  391.14
    119.5700	 2075.00	 1936.06	-1767.90	  391.38
    119.6700	 1822.00	 1745.23	-1830.07	  391.61
    119.7700	 1717.00	 1579.14	-1768.97	  391.85
    119.8700	 1612.00	 1435.70	-1730.53	  392.10
    119.9700	 1423.00	 1312.70	-1796.54	  392.34
    120.0700	 1271.00	 1207.86	-1843.70	  392.60
    120.1700	 1229.00	 1118.94	-1796.77	  392.85
    120.2700	 1203.00	 1043.78	-1747.62	  393.11
    120.3700	 1093.00	  980.41	-1794.25	  393.37
    120.4700	  963.00	  927.07	-1870.91	  393.64
    120.5700	  975.00	  882.18	-1814.02	  393.91
    120.6700	  880.00	  844.40	-1871.23	  394.18
    120.7700	  820.00	  812.55	-1899.39	  394.46
    120.8700	  821.00	  785.67	-1871.51	  394.74
    120.9700	  754.00	  762.98	-1915.81	  395.03
    121.0700	  776.00	  743.80	-1874.63	  395.32
    121.1700	  735.00	  727.60	-1899.44	  395.61
    121.2700	  709.00	  713.96	-1911.80	  395.91
    121.3700	  662.00	  702.52	-1947.36	  396.21
    121.4700	  645.00	  693.02	-1954.85	  396.52
    121.5700	  641.00	  685.21	-1951.05	  396.83
    121.6700	  656.00	  678.94	-1929.78	  397.15
    121.7700	  651.00	  674.04	-1929.88	  397.46
    121.8700	  702.00	  670.41	-1875.25	  397.79
    121.9700	  640.00	  667.94	-1934.77	  398.11
    122.0700	  703.00	  666.55	-1870.38	  398.44
    122.1700	  684.00	  666.16	-1889.00	  398.78
    122.2700	  654.00	  666.73	-1919.56	  399.12
    122.3700	  654.00	  668.17	-1921.01	  399.46
    122.4700	  655.00	  670.45	-1922.28	  399.81
    122.5700	  671.00	  673.48	-1909.32	  400.16
    122.6700	  630.00	  677.21	-1954.05	  400.52
    122.7700	  671.00	  681.58	-1917.41	  400.88
    122.8700	  680.00	  686.49	-1913.33	  401.25
    122.9700	  681.00	  691.87	-1917.71	  401.62
    123.0700	  664.00	  697.64	-1940.47	  401.99
    123.1700	  656.00	  703.68	-1954.52	  402.37
    123.2700	  672.00	  709.89	-1944.73	  402.75
    123.3700	  668.00	  716.16	-1955.00	  403.14
    123.4700	  727.00	  722.37	-1902.21	  403.53
    123.5700	  739.00	  728.39	-1896.23	  403.93
    123.6700	  718.00	  734.12	-1922.96	  404.33
    123.7700	  708.00	  739.43	-1938.27	  404.74
    123.8700	  763.00	  744.23	-1888.07	  405.15
    123.9700	  692.00	  748.44	-1963.28	  405.56
    124.0700	  736.00	  752.02	-1922.86	  405.98
    124.1700	  754.00	  754.93	-1907.77	  406.40
    124.2700	  778.00	  757.20	-1886.04	  406.83
    124.3700	  784.00	  758.84	-1881.68	  407.27
    124.4700	  725.00	  759.89	-1941.73	  407.71
    124.5700	  677.00	  760.46	-1990.30	  408.15
    124.6700	  778.00	  760.60	-1889.44	  408.60
    124.7700	  734.00	  760.37	-1933.20	  409.05
    124.8700	  691.00	  759.82	-1975.66	  409.51
    124.9700	  763.00	  537.51	-1681.35	  409.97
    125.0700	  753.00	  537.98	-1906.84	  410.44
    125.1700	  709.00	  538.45	-1906.84	  410.91
    125.2700	  722.00	  538.93	-1906.84	  411.39
    125.3700	  760.00	  539.41	-1906.84	  411.87
    125.4700	  773.00	  539.90	-1906.84	  412.36
    125.5700	  725.00	  540.39	-1906.84	  412.85
    125.6700	  737.00	  540.89	-1906.84	  413.35
    125.7700	  671.00	  541.39	-1906.84	  413.85
    125.8700	  715.00	  541.90	-1906.84	  414.36
    125.9700	  733.00	  542.42	-1906.84	  414.87
    126.0700	  698.00	  542.93	-1906.84	  415.39
    126.1700	  672.00	  543.46	-1906.84	  415.91
    126.2700	  698.00	  543.98	-1906.84	  416.44
    126.3700	  643.00	  544.52	-1906.84	  416.98
    126.4700	  664.00	  545.06	-1906.84	  417.51
    126.5700	  699.00	  545.60	-1906.84	  418.06
    126.6700	  684.00	  546.15	-1906.84	  418.61
    126.7700	  691.00	  546.70	-1906.84	  419.16
    126.8700	  618.00	  547.27	-1906.84	  419.72
    126.9700	  652.00	  547.83	-1906.84	  420.29
    127.0700	  643.00	  548.40	-1906.84	  420.86
    127.1700	  612.00	  548.98	-1906.84	  421.43
    127.2700	  619.00	  549.56	-1906.84	  422.02
    127.3700	  626.00	  550.15	-1906.84	  422.60
    127.4700	  598.00	  550.74	-1906.84	  423.20
    127.5700	  577.00	  551.34	-1906.84	  423.79
    127.6700	  598.00	  551.94	-1906.84	  424.40
    127.7700	  644.00	  552.55	-1906.84	  425.01
    127.8700	  616.00	  553.17	-1906.84	  425.62
    127.9700	  640.00	  553.79	-1906.84	  426.24
    128.0700	  657.00	  554.41	-1906.84	  426.87
    128.1700	  620.00	  555.04	-1906.84	  427.50
    128.2700	  650.00	  555.68	-1906.84	  428.14
    128.3700	  634.00	  556.32	-1906.84	  428.78
    128.4700	  695.00	  556.97	-1906.84	  429.43
    128.5700	    0.00	  557.63	-1906.84	  430.09
    128.6700	    0.00	  558.29	-1906.84	  430.75
     12.4122	        	        	        	        	       0	(  0  0  2)	  0  1
     12.4122	        	        	        	        	    -476	(  0  0  2)	  0  1
     25.0664	        	        	        	        	       0	(  0  0  4)	  0  1
     25.0664	        	        	        	        	    -476	(  0  0  4)	  0  1
     28.5222	        	        	        	        	       0	(  1  0  0)	  0  1
     28.5222	        	        	        	        	    -476	(  1  0  0)	  0  1
     29.2236	        	        	        	        	       0	(  1  0  1)	  0  1
     29.2236	        	        	        	        	    -476	(  1  0  1)	  0  1
     31.2420	        	        	        	        	       0	(  1  0  2)	  0  1
     31.2420	        	        	        	        	    -476	(  1  0  2)	  0  1
     34.3693	        	        	        	        	       0	(  1  0  3)	  0  1
     34.3693	        	        	        	        	    -476	(  1  0  3)	  0  1
     38.0420	        	        	        	        	       0	(  0  0  6)	  0  1
     38.0420	        	        	        	        	    -476	(  0  0  6)	  0  1
     38.3710	        	        	        	        	       0	(  1  0  4)	  0  1
     38.3710	        	        	        	        	    -476	(  1  0  4)	  0  1
     43.0505	        	        	        	        	       0	(  1  0  5)	  0  1
     43.0505	        	        	        	        	    -476	(  1  0  5)	  0  1
     48.2682	        	        	        	        	       0	(  1  0  6)	  0  1
     48.2682	        	        	        	        	    -476	(  1  0  6)	  0  1
     50.5906	        	        	        	        	       0	(  1  1  0)	  0  1
     50.5906	        	        	        	        	    -476	(  1  1  0)	  0  1
     51.5497	        	        	        	        	       0	(  0  0  8)	  0  1
     51.5497	        	        	        	        	    -476	(  0  0  8)	  0  1
     52.3255	        	        	        	        	       0	(  1  1  2)	  0  1
     52.3255	        	        	        	        	    -476	(  1  1  2)	  0  1
     53.9368	        	        	        	        	       0	(  1  0  7)	  0  1
     53.9368	        	        	        	        	    -476	(  1  0  7)	  0  1
     57.3084	        	        	        	        	       0	(  1  1  4)	  0  1
     57.3084	        	        	        	        	    -476	(  1  1  4)	  0  1
     59.1446	        	        	        	        	       0	(  2  0  0)	  0  1
     59.1446	        	        	        	        	    -476	(  2  0  0)	  0  1
     59.5391	        	        	        	        	       0	(  2  0  1)	  0  1
     59.5391	        	        	        	        	    -476	(  2  0  1)	  0  1
     60.0101	        	        	        	        	       0	(  1  0  8)	  0  1
     60.0101	        	        	        	        	    -476	(  1  0  8)	  0  1
     60.7131	        	        	        	        	       0	(  2  0  2)	  0  1
     60.7131	        	        	        	        	    -476	(  2  0  2)	  0  1
     62.6408	        	        	        	        	       0	(  2  0  3)	  0  1
     62.6408	        	        	        	        	    -476	(  2  0  3)	  0  1
     65.0607	        	        	        	        	       0	(  1  1  6)	  0  1
     65.0607	        	        	        	        	    -476	(  1  1  6)	  0  1
     65.2851	        	        	        	        	       0	(  2  0  4)	  0  1
     65.2851	        	        	        	        	    -476	(  2  0  4)	  0  1
     65.8813	        	        	        	        	       0	(  0  0 10)	  0  1
     65.8813	        	        	        	        	    -476	(  0  0 10)	  0  1
     66.4750	        	        	        	        	       0	(  1  0  9)	  0  1
     66.4750	        	        	        	        	    -476	(  1  0  9)	  0  1
     68.6056	        	        	        	        	       0	(  2  0  5)	  0  1
     68.6056	        	        	        	        	    -476	(  2  0  5)	  0  1
     72.5656	        	        	        	        	       0	(  2  0  6)	  0  1
     72.5656	        	        	        	        	    -476	(  2  0  6)	  0  1
     73.3466	        	        	        	        	       0	(  1  0 10)	  0  1
     73.3466	        	        	        	        	    -476	(  1  0 10)	  0  1
     75.1810	        	        	        	        	       0	(  1  1  8)	  0  1
     75.1810	        	        	        	        	    -476	(  1  1  8)	  0  1
     77.1393	        	        	        	        	       0	(  2  0  7)	  0  1
     77.1393	        	        	        	        	    -476	(  2  0  7)	  0  1
     80.6690	        	        	        	        	       0	(  1  0 11)	  0  1
     80.6690	        	        	        	        	    -476	(  1  0 11)	  0  1
     81.4939	        	        	        	        	       0	(  0  0 12)	  0  1
     81.4939	        	        	        	        	    -476	(  0  0 12)	  0  1
     81.5630	        	        	        	        	       0	(  2  1  0)	  0  1
     81.5630	        	        	        	        	    -476	(  2  1  0)	  0  1
     81.9061	        	        	        	        	       0	(  2  1  1)	  0  1
     81.9061	        	        	        	        	    -476	(  2  1  1)	  0  1
     82.3174	        	        	        	        	       0	(  2  0  8)	  0  1
     82.3174	        	        	        	        	    -476	(  2  0  8)	  0  1
     82.9339	        	        	        	        	       0	(  2  1  2)	  0  1
     82.9339	        	        	        	        	    -476	(  2  1  2)	  0  1
     84.6419	        	        	        	        	       0	(  2  1  3)	  0  1
     84.6419	        	        	        	        	    -476	(  2  1  3)	  0  1
     87.0257	        	        	        	        	       0	(  2  1  4)	  0  1
     87.0257	        	        	        	        	    -476	(  2  1  4)	  0  1
     87.5695	        	        	        	        	       0	(  1  1 10)	  0  1
     87.5695	        	        	        	        	    -476	(  1  1 10)	  0  1
     88.1133	        	        	        	        	       0	(  2  0  9)	  0  1
     88.1133	        	        	        	        	    -476	(  2  0  9)	  0  1
     88.5209	        	        	        	        	       0	(  1  0 12)	  0  1
     88.5209	        	        	        	        	    -476	(  1  0 12)	  0  1
     90.0838	        	        	        	        	       0	(  2  1  5)	  0  1
     90.0838	        	        	        	        	    -476	(  2  1  5)	  0  1
     93.8230	        	        	        	        	       0	(  2  1  6)	  0  1
     93.8230	        	        	        	        	    -476	(  2  1  6)	  0  1
     94.5722	        	        	        	        	       0	(  2  0 10)	  0  1
     94.5722	        	        	        	        	    -476	(  2  0 10)	  0  1
     95.5956	        	        	        	        	       0	(  3  0  0)	  0  1
     95.5956	        	        	        	        	    -476	(  3  0  0)	  0  1
     95.9370	        	        	        	        	       0	(  3  0  1)	  0  1
     95.9370	        	        	        	        	    -476	(  3  0  1)	  0  1
     96.9627	        	        	        	        	       0	(  3  0  2)	  0  1
     96.9627	        	        	        	        	    -476	(  3  0  2)	  0  1
     97.0306	        	        	        	        	       0	(  1  0 13)	  0  1
     97.0306	        	        	        	        	    -476	(  1  0 13)	  0  1
     98.2650	        	        	        	        	       0	(  2  1  7)	  0  1
     98.2650	        	        	        	        	    -476	(  2  1  7)	  0  1
     98.6773	        	        	        	        	       0	(  3  0  3)	  0  1
     98.6773	        	        	        	        	    -476	(  3  0  3)	  0  1
     99.2270	        	        	        	        	       0	(  0  0 14)	  0  1
     99.2270	        	        	        	        	    -476	(  0  0 14)	  0  1
    101.0916	        	        	        	        	       0	(  3  0  4)	  0  1
    101.0916	        	        	        	        	    -476	(  3  0  4)	  0  1
    101.7845	        	        	        	        	       0	(  2  0 11)	  0  1
    101.7845	        	        	        	        	    -476	(  2  0 11)	  0  1
    102.6188	        	        	        	        	       0	(  1  1 12)	  0  1
    102.6188	        	        	        	        	    -476	(  1  1 12)	  0  1
    103.4561	        	        	        	        	       0	(  2  1  8)	  0  1
    103.4561	        	        	        	        	    -476	(  2  1  8)	  0  1
    104.2261	        	        	        	        	       0	(  3  0  5)	  0  1
    104.2261	        	        	        	        	    -476	(  3  0  5)	  0  1
    106.4101	        	        	        	        	       0	(  1  0 14)	  0  1
    106.4101	        	        	        	        	    -476	(  1  0 14)	  0  1
    108.1187	        	        	        	        	       0	(  3  0  6)	  0  1
    108.1187	        	        	        	        	    -476	(  3  0  6)	  0  1
    109.4828	        	        	        	        	       0	(  2  1  9)	  0  1
    109.4828	        	        	        	        	    -476	(  2  1  9)	  0  1
    109.9157	        	        	        	        	       0	(  2  0 12)	  0  1
    109.9157	        	        	        	        	    -476	(  2  0 12)	  0  1
    112.8361	        	        	        	        	       0	(  3  0  7)	  0  1
    112.8361	        	        	        	        	    -476	(  3  0  7)	  0  1
    116.5021	        	        	        	        	       0	(  2  1 10)	  0  1
    116.5021	        	        	        	        	    -476	(  2  1 10)	  0  1
    117.0348	        	        	        	        	       0	(  1  0 15)	  0  1
    117.0348	        	        	        	        	    -476	(  1  0 15)	  0  1
    117.6478	        	        	        	        	       0	(  2  2  0)	  0  1
    117.6478	        	        	        	        	    -476	(  2  2  0)	  0  1
    118.4952	        	        	        	        	       0	(  3  0  8)	  0  1
    118.4952	        	        	        	        	    -476	(  3  0  8)	  0  1
    119.1939	        	        	        	        	       0	(  2  2  2)	  0  1
    119.1939	        	        	        	        	    -476	(  2  2  2)	  0  1
    119.2713	        	        	        	        	       0	(  2  0 13)	  0  1
    119.2713	        	        	        	        	    -476	(  2  0 13)	  0  1
    121.0801	        	        	        	        	       0	(  0  0 16)	  0  1
    121.0801	        	        	        	        	    -476	(  0  0 16)	  0  1
    121.7975	        	        	        	        	       0	(  1  1 14)	  0  1
    121.7975	        	        	        	        	    -476	(  1  1 14)	  0  1
    123.9848	        	        	        	        	       0	(  2  2  4)	  0  1
    123.9848	        	        	        	        	    -476	(  2  2  4)	  0  1
    124.8086	        	        	        	        	       0	(  2  1 11)	  0  1
    124.8086	        	        	        	        	    -476	(  2  1 11)	  0  1
    125.3072	        	        	        	        	       0	(  3  0  9)	  0  1
    125.3072	        	        	        	        	    -476	(  3  0  9)	  0  1
    125.8930	        	        	        	        	       0	(  3  1  0)	  0  1
    125.8930	        	        	        	        	    -476	(  3  1  0)	  0  1
    126.3138	        	        	        	        	       0	(  3  1  1)	  0  1
    126.3138	        	        	        	        	    -476	(  3  1  1)	  0  1
    127.5904	        	        	        	        	       0	(  3  1  2)	  0  1
    127.5904	        	        	        	        	    -476	(  3  1  2)	  0  1
    129.6794	        	        	        	        	       0	(  1  0 16)	  0  1
    129.6794	        	        	        	        	    -476	(  1  0 16)	  0  1
    129.7687	        	        	        	        	       0	(  3  1  3)	  0  1
    129.7687	        	        	        	        	    -476	(  3  1  3)	  0  1
    130.4797	        	        	        	        	       0	(  2  0 14)	  0  1
    130.4797	        	        	        	        	    -476	(  2  0 14)	  0  1
    132.6627	        	        	        	        	       0	(  2  2  6)	  0  1
    132.6627	        	        	        	        	    -476	(  2  2  6)	  0  1
    132.9409	        	        	        	        	       0	(  3  1  4)	  0  1
    132.9409	        	        	        	        	    -476	(  3  1  4)	  0  1
    133.6886	        	        	        	        	       0	(  3  0 10)	  0  1
    133.6886	        	        	        	        	    -476	(  3  0 10)	  0  1
    135.0206	        	        	        	        	       0	(  2  1 12)	  0  1
    135.0206	        	        	        	        	    -476	(  2  1 12)	  0  1
    137.2802	        	        	        	        	       0	(  3  1  5)	  0  1
    137.2802	        	        	        	        	    -476	(  3  1  5)	  0  1
    143.1313	        	        	        	        	       0	(  3  1  6)	  0  1
    143.1313	        	        	        	        	    -476	(  3  1  6)	  0  1
    144.6323	        	        	        	        	       0	(  3  0 11)	  0  1
    144.6323	        	        	        	        	    -476	(  3  0 11)	  0  1
    145.2242	        	        	        	        	       0	(  2  0 15)	  0  1
    145.2242	        	        	        	        	    -476	(  2  0 15)	  0  1
    146.5596	        	        	        	        	       0	(  1  0 17)	  0  1
    146.5596	        	        	        	        	    -476	(  1  0 17)	  0  1
    147.5627	        	        	        	        	       0	(  2  2  8)	  0  1
    147.5627	        	        	        	        	    -476	(  2  2  8)	  0  1
    148.8548	        	        	        	        	       0	(  2  1 13)	  0  1
    148.8548	        	        	        	        	    -476	(  2  1 13)	  0  1
    151.3143	        	        	        	        	       0	(  3  1  7)	  0  1
    151.3143	        	        	        	        	    -476	(  3  1  7)	  0  1
    152.0309	        	        	        	        	       0	(  1  1 16)	  0  1
    152.0309	        	        	        	        	    -476	(  1  1 16)	  0  1
    156.9366	        	        	        	        	       0	(  0  0 18)	  0  1
    156.9366	        	        	        	        	    -476	(  0  0 18)	  0  1
    162.2187	        	        	        	        	       0	(  3  0 12)	  0  1
    162.2187	        	        	        	        	    -476	(  3  0 12)	  0  1
    162.4450	        	        	        	        	       0	(  4  0  0)	  0  1
    162.4450	        	        	        	        	    -476	(  4  0  0)	  0  1
    163.6147	        	        	        	        	       0	(  4  0  1)	  0  1
    163.6147	        	        	        	        	    -476	(  4  0  1)	  0  1
    165.1360	        	        	        	        	       0	(  3  1  8)	  0  1
    165.1360	        	        	        	        	    -476	(  3  1  8)	  0  1
    167.7634	        	        	        	        	       0	(  4  0  2)	  0  1
    167.7634	        	        	        	        	    -476	(  4  0  2)	  0  1
