MSG Master    CELL:    5.88277   5.88277  23.11750   90.0000   90.0000  120.0000   SPGR: P 63/m m c             TEMP:    561.15
  2   1280     2.52000     0.00000    -0.08906     0.00000     0.00000    0
    96    96     0     0     2
       0.00000      10.00000
     125.00000     130.00000
 2Theta	Yobs	Ycal	Yobs-Ycal	Backg	Posr	(hkl)	K
      0.7700	    0.00	  906.44	-1943.85	  773.79
      0.8700	    0.00	  903.73	-1943.85	  771.08
      0.9700	   41.00	  901.04	-1943.85	  768.39
      1.0700	   41.00	  898.36	-1943.85	  765.72
      1.1700	   33.00	  895.70	-1943.85	  763.06
      1.2700	   42.00	  893.06	-1943.85	  760.41
      1.3700	   45.00	  890.43	-1943.85	  757.78
      1.4700	  111.00	  887.82	-1943.85	  755.17
      1.5700	  289.00	  885.22	-1943.85	  752.57
      1.6700	  480.00	  882.64	-1943.85	  749.99
      1.7700	  537.00	  880.07	-1943.85	  747.42
      1.8700	  653.00	  877.52	-1943.85	  744.87
      1.9700	  756.00	  874.98	-1943.85	  742.34
      2.0700	  753.00	  872.46	-1943.85	  739.81
      2.1700	  787.00	  869.95	-1943.85	  737.31
      2.2700	  744.00	  867.46	-1943.85	  734.82
      2.3700	  727.00	  864.99	-1943.85	  732.34
      2.4700	  667.00	  862.53	-1943.85	  729.88
      2.5700	  660.00	  860.08	-1943.85	  727.44
      2.6700	  692.00	  857.65	-1943.85	  725.01
      2.7700	  677.00	  855.24	-1943.85	  722.59
      2.8700	  605.00	  852.83	-1943.85	  720.19
      2.9700	  613.00	  850.45	-1943.85	  717.80
      3.0700	  601.00	  848.08	-1943.85	  715.43
      3.1700	  638.00	  845.72	-1943.85	  713.07
      3.2700	  764.00	  843.38	-1943.85	  710.73
      3.3700	  976.00	  841.05	-1943.85	  708.40
      3.4700	 1055.00	  838.73	-1943.85	  706.09
      3.5700	 1165.00	  836.44	-1943.85	  703.79
      3.6700	 1386.00	  834.15	-1943.85	  701.50
      3.7700	 1325.00	  831.88	-1943.85	  699.23
      3.8700	 1502.00	  829.62	-1943.85	  696.98
      3.9700	 1566.00	  827.38	-1943.85	  694.73
      4.0700	 1614.00	  825.15	-1943.85	  692.51
      4.1700	 1631.00	  822.94	-1943.85	  690.29
      4.2700	 1680.00	  820.74	-1943.85	  688.09
      4.3700	 1665.00	  818.55	-1943.85	  685.90
      4.4700	 1595.00	  816.38	-1943.85	  683.73
      4.5700	 1520.00	  814.22	-1943.85	  681.57
      4.6700	 1566.00	  812.07	-1943.85	  679.43
      4.7700	 1464.00	  809.94	-1943.85	  677.29
      4.8700	 1500.00	  807.82	-1943.85	  675.18
      4.9700	 1377.00	  805.72	-1943.85	  673.07
      5.0700	 1422.00	  803.63	-1943.85	  670.98
      5.1700	 1336.00	  801.55	-1943.85	  668.90
      5.2700	 1233.00	  799.48	-1943.85	  666.84
      5.3700	 1207.00	  797.43	-1943.85	  664.79
      5.4700	 1181.00	  795.40	-1943.85	  662.75
      5.5700	 1227.00	  793.37	-1943.85	  660.73
      5.6700	 1115.00	  791.36	-1943.85	  658.71
      5.7700	 1078.00	  789.36	-1943.85	  656.72
      5.8700	 1138.00	  787.38	-1943.85	  654.73
      5.9700	 1089.00	  785.40	-1943.85	  652.76
      6.0700	 1074.00	  783.45	-1943.85	  650.80
      6.1700	 1036.00	  781.50	-1943.85	  648.85
      6.2700	 1024.00	  779.57	-1943.85	  646.92
      6.3700	  996.00	  777.64	-1943.85	  645.00
      6.4700	  940.00	  775.74	-1943.85	  643.09
      6.5700	  992.00	  773.84	-1943.85	  641.19
      6.6700	  944.00	  771.96	-1943.85	  639.31
      6.7700	  912.00	  770.09	-1943.85	  637.44
      6.8700	  928.00	  768.23	-1943.85	  635.58
      6.9700	  896.00	  766.38	-1943.85	  633.74
      7.0700	  921.00	  764.55	-1943.85	  631.91
      7.1700	  873.00	  762.73	-1943.85	  630.08
      7.2700	  865.00	  760.92	-1943.85	  628.28
      7.3700	  804.00	  759.13	-1943.85	  626.48
      7.4700	  843.00	  757.34	-1943.85	  624.70
      7.5700	  835.00	  755.57	-1943.85	  622.92
      7.6700	  858.00	  753.81	-1943.85	  621.16
      7.7700	  829.00	  752.06	-1943.85	  619.42
      7.8700	  753.00	  750.33	-1943.85	  617.68
      7.9700	  830.00	  748.60	-1943.85	  615.96
      8.0700	  794.00	  746.89	-1943.85	  614.24
      8.1700	  850.00	  745.19	-1943.85	  612.54
      8.2700	  784.00	  743.50	-1943.85	  610.86
      8.3700	  832.00	  741.83	-1943.85	  609.18
      8.4700	  726.00	  740.16	-1943.85	  607.51
      8.5700	  800.00	  738.51	-1943.85	  605.86
      8.6700	  765.00	  736.86	-1943.85	  604.22
      8.7700	  796.00	  735.23	-1943.85	  602.59
      8.8700	  736.00	  733.61	-1943.85	  600.97
      8.9700	  746.00	  732.01	-1943.85	  599.36
      9.0700	  726.00	  730.41	-1943.85	  597.76
      9.1700	  712.00	  728.83	-1943.85	  596.18
      9.2700	  722.00	  727.25	-1943.85	  594.61
      9.3700	  726.00	  725.69	-1943.85	  593.04
      9.4700	  742.00	  724.14	-1943.85	  591.49
      9.5700	  764.00	  722.60	-1943.85	  589.95
      9.6700	  717.00	  721.07	-1943.85	  588.42
      9.7700	  727.00	  719.55	-1943.85	  586.90
      9.8700	  698.00	  718.04	-1943.85	  585.40
      9.9700	  711.00	  716.55	-1943.85	  583.90
     10.0700	  700.00	  717.12	-1960.97	  582.41
     10.1700	  724.00	  715.87	-1935.72	  580.94
     10.2700	  783.00	  714.67	-1875.53	  579.47
     10.3700	  720.00	  713.55	-1937.40	  578.02
     10.4700	  711.00	  712.52	-1945.38	  576.58
     10.5700	  680.00	  711.64	-1975.49	  575.15
     10.6700	  733.00	  710.95	-1921.80	  573.72
     10.7700	  688.00	  710.55	-1966.40	  572.31
     10.8700	  724.00	  710.53	-1930.38	  570.91
     10.9700	  697.00	  710.98	-1957.84	  569.52
     11.0700	  697.00	  711.95	-1958.80	  568.14
     11.1700	  675.00	  713.44	-1982.30	  566.77
     11.2700	  735.00	  715.49	-1924.34	  565.41
     11.3700	  724.00	  718.13	-1937.98	  564.06
     11.4700	  775.00	  721.47	-1890.32	  562.72
     11.5700	  746.00	  725.65	-1923.51	  561.39
     11.6700	  793.00	  730.93	-1881.78	  560.07
     11.7700	  752.00	  737.61	-1929.46	  558.76
     11.8700	  801.00	  745.98	-1888.83	  557.47
     11.9700	  784.00	  756.12	-1915.97	  556.18
     12.0700	  847.00	  767.39	-1864.25	  554.90
     12.1700	  818.00	  777.92	-1903.78	  553.63
     12.2700	  810.00	  784.01	-1917.86	  552.37
     12.3700	  836.00	  780.61	-1888.46	  551.12
     12.4700	  810.00	  765.63	-1899.49	  549.88
     12.5700	  778.00	  744.48	-1910.33	  548.65
     12.6700	  711.00	  724.57	-1957.43	  547.42
     12.7700	  671.00	  709.21	-1982.06	  546.21
     12.8700	  665.00	  698.48	-1977.33	  545.01
     12.9700	  657.00	  691.25	-1978.10	  543.82
     13.0700	  635.00	  686.33	-1995.19	  542.63
     13.1700	  617.00	  682.78	-2009.64	  541.46
     13.2700	  685.00	  680.01	-1938.86	  540.30
     13.3700	  634.00	  677.69	-1987.55	  539.14
     13.4700	  628.00	  675.67	-1991.52	  537.99
     13.5700	  630.00	  673.84	-1987.69	  536.86
     13.6700	  694.00	  672.15	-1922.01	  535.73
     13.7700	  650.00	  670.58	-1964.44	  534.61
     13.8700	  663.00	  669.10	-1949.96	  533.50
     13.9700	  688.00	  667.69	-1923.54	  532.40
     14.0700	  645.00	  666.34	-1965.19	  531.31
     14.1700	  662.00	  665.03	-1946.89	  530.22
     14.2700	  670.00	  663.77	-1937.62	  529.15
     14.3700	  694.00	  662.54	-1912.39	  528.08
     14.4700	  589.00	  661.34	-2016.19	  527.03
     14.5700	  640.00	  660.17	-1964.02	  525.98
     14.6700	  659.00	  659.02	-1943.87	  524.94
     14.7700	  660.00	  657.89	-1941.74	  523.91
     14.8700	  615.00	  656.78	-1985.63	  522.89
     14.9700	  705.00	  655.69	-1894.54	  521.87
     15.0700	  652.00	  654.62	-1946.47	  520.87
     15.1700	  615.00	  653.56	-1982.41	  519.87
     15.2700	  632.00	  652.51	-1964.37	  518.88
     15.3700	  634.00	  651.48	-1961.33	  517.90
     15.4700	  668.00	  650.47	-1926.32	  516.93
     15.5700	  602.00	  649.46	-1991.31	  515.97
     15.6700	  642.00	  648.47	-1950.32	  515.01
     15.7700	  594.00	  647.49	-1997.34	  514.07
     15.8700	  697.00	  646.52	-1893.37	  513.13
     15.9700	  669.00	  645.56	-1920.41	  512.20
     16.0700	  669.00	  644.61	-1919.46	  511.27
     16.1700	  660.00	  643.67	-1927.52	  510.36
     16.2700	  634.00	  642.74	-1952.59	  509.45
     16.3700	  622.00	  641.82	-1963.67	  508.55
     16.4700	  637.00	  640.91	-1947.76	  507.66
     16.5700	  641.00	  640.01	-1942.86	  506.78
     16.6700	  647.00	  639.12	-1935.97	  505.91
     16.7700	  641.00	  638.23	-1941.09	  505.04
     16.8700	  649.00	  637.36	-1932.21	  504.18
     16.9700	  628.00	  636.50	-1952.35	  503.33
     17.0700	  603.00	  635.64	-1976.49	  502.48
     17.1700	  666.00	  634.79	-1912.64	  501.65
     17.2700	  643.00	  633.95	-1934.80	  500.82
     17.3700	  622.00	  633.12	-1954.97	  500.00
     17.4700	  662.00	  632.30	-1914.15	  499.18
     17.5700	  646.00	  631.48	-1929.33	  498.38
     17.6700	  647.00	  630.68	-1927.53	  497.58
     17.7700	  674.00	  629.88	-1899.73	  496.78
     17.8700	  625.00	  629.09	-1947.94	  496.00
     17.9700	  622.00	  628.30	-1950.16	  495.22
     18.0700	  689.00	  627.53	-1882.38	  494.45
     18.1700	  651.00	  626.76	-1919.61	  493.69
     18.2700	  574.00	  626.00	-1995.85	  492.93
     18.3700	  646.00	  625.25	-1923.10	  492.19
     18.4700	  627.00	  624.50	-1941.36	  491.45
     18.5700	  642.00	  623.77	-1925.62	  490.71
     18.6700	  655.00	  623.04	-1911.89	  489.98
     18.7700	  622.00	  622.31	-1944.17	  489.26
     18.8700	  600.00	  621.60	-1965.45	  488.55
     18.9700	  619.00	  623.60	-1948.45	  487.84
     19.0700	  603.00	  622.96	-1963.81	  487.14
     19.1700	  612.00	  622.32	-1954.17	  486.45
     19.2700	  618.00	  621.70	-1947.55	  485.76
     19.3700	  611.00	  621.08	-1953.93	  485.08
     19.4700	  670.00	  620.47	-1894.32	  484.41
     19.5700	  603.00	  619.87	-1960.73	  483.75
     19.6700	  597.00	  619.29	-1966.14	  483.09
     19.7700	  586.00	  618.71	-1976.56	  482.43
     19.8700	  615.00	  618.14	-1946.99	  481.79
     19.9700	  647.00	  617.57	-1914.43	  481.15
     20.0700	  609.00	  617.02	-1951.88	  480.51
     20.1700	  642.00	  616.48	-1918.33	  479.89
     20.2700	  574.00	  616.00	-1985.85	  479.27
     20.3700	  582.00	  615.48	-1977.33	  478.65
     20.4700	  616.00	  614.97	-1942.82	  478.04
     20.5700	  649.00	  614.47	-1909.32	  477.44
     20.6700	  641.00	  613.98	-1916.83	  476.85
     20.7700	  598.00	  613.50	-1959.35	  476.26
     20.8700	  582.00	  613.03	-1974.88	  475.68
     20.9700	  641.00	  612.58	-1915.43	  475.10
     21.0700	  600.00	  612.13	-1955.98	  474.53
     21.1700	  602.00	  611.70	-1953.55	  473.96
     21.2700	  665.00	  611.28	-1890.13	  473.40
     21.3700	  578.00	  610.87	-1976.72	  472.85
     21.4700	  590.00	  610.47	-1964.33	  472.30
     21.5700	  635.00	  610.09	-1918.94	  471.76
     21.6700	  598.00	  609.72	-1955.58	  471.23
     21.7700	  610.00	  609.37	-1943.22	  470.70
     21.8700	  644.00	  609.03	-1908.88	  470.18
     21.9700	  637.00	  608.71	-1915.56	  469.66
     22.0700	  664.00	  608.40	-1888.25	  469.15
     22.1700	  597.00	  608.11	-1954.97	  468.64
     22.2700	  636.00	  607.84	-1915.70	  468.14
     22.3700	  604.00	  607.59	-1947.44	  467.65
     22.4700	  623.00	  607.56	-1928.41	  467.16
     22.5700	  566.00	  607.35	-1985.21	  466.67
     22.6700	  610.00	  607.17	-1941.03	  466.19
     22.7700	  615.00	  607.02	-1935.87	  465.72
     22.8700	  567.00	  606.89	-1983.75	  465.25
     22.9700	  565.00	  606.80	-1985.65	  464.79
     23.0700	  619.00	  606.74	-1931.60	  464.34
     23.1700	  616.00	  606.73	-1934.58	  463.89
     23.2700	  604.00	  606.75	-1946.61	  463.44
     23.3700	  567.00	  606.83	-1983.69	  463.00
     23.4700	  640.00	  606.98	-1910.83	  462.56
     23.5700	  629.00	  607.19	-1922.05	  462.13
     23.6700	  577.00	  607.51	-1974.36	  461.71
     23.7700	  643.00	  607.94	-1908.79	  461.29
     23.8700	  629.00	  608.53	-1923.38	  460.87
     23.9700	  609.00	  609.36	-1944.22	  460.46
     24.0700	  598.00	  610.56	-1956.41	  460.06
     24.1700	  626.00	  612.27	-1930.12	  459.66
     24.2700	  607.00	  614.89	-1951.75	  459.27
     24.3700	  588.00	  618.78	-1974.64	  458.88
     24.4700	  648.00	  624.37	-1920.22	  458.49
     24.5700	  658.00	  631.94	-1917.80	  458.11
     24.6700	  679.00	  641.42	-1906.27	  457.74
     24.7700	  674.00	  652.07	-1921.92	  457.37
     24.8700	  718.00	  662.15	-1888.01	  457.00
     24.9700	  723.00	  668.66	-1889.51	  456.64
     25.0700	  673.00	  668.14	-1938.99	  456.29
     25.1700	  686.00	  660.18	-1918.03	  455.93
     25.2700	  658.00	  648.96	-1934.81	  455.59
     25.3700	  698.00	  638.80	-1884.66	  455.25
     25.4700	  613.00	  631.53	-1962.38	  454.91
     25.5700	  670.00	  627.07	-1900.93	  454.58
     25.6700	  651.00	  624.91	-1917.76	  454.25
     25.7700	  617.00	  624.35	-1951.20	  453.92
     25.8700	  651.00	  624.86	-1917.71	  453.60
     25.9700	  613.00	  626.12	-1956.97	  453.29
     26.0700	  586.00	  627.96	-1985.81	  452.98
     26.1700	  628.00	  630.34	-1946.20	  452.67
     26.2700	  625.00	  633.27	-1952.12	  452.37
     26.3700	  624.00	  636.78	-1956.64	  452.07
     26.4700	  634.00	  640.97	-1950.82	  451.78
     26.5700	  634.00	  645.93	-1955.78	  451.49
     26.6700	  678.00	  651.82	-1917.68	  451.21
     26.7700	  608.00	  658.85	-1994.70	  450.93
     26.8700	  688.00	  667.27	-1923.12	  450.65
     26.9700	  674.00	  677.44	-1947.29	  450.38
     27.0700	  635.00	  689.86	-1998.72	  450.11
     27.1700	  653.00	  705.23	-1996.08	  449.85
     27.2700	  696.00	  724.57	-1972.42	  449.59
     27.3700	  685.00	  749.55	-2008.40	  449.33
     27.4700	  741.00	  783.36	-1986.21	  449.08
     27.5700	  799.00	  832.81	-1977.66	  448.83
     27.6700	  841.00	  912.62	-2015.47	  448.59
     27.7700	  840.00	 1051.95	-2155.80	  448.35
     27.8700	 1011.00	 1301.50	-2234.35	  448.11
     27.9700	 1349.00	 1735.46	-2330.32	  447.88
     28.0700	 1910.00	 2435.64	-2469.49	  447.65
     28.1700	 3059.00	 3445.15	-2330.01	  447.42
     28.2700	 4903.00	 4685.13	-1725.98	  447.20
     28.3700	 6700.00	 5859.18	-1103.03	  446.99
     28.4700	 7309.00	 6448.58	-1083.43	  446.77
     28.5700	 6477.00	 6023.09	-1489.95	  446.56
     28.6700	 4882.00	 4898.17	-1960.02	  446.36
     28.7700	 3566.00	 3870.60	-2248.46	  446.15
     28.8700	 3129.00	 3373.41	-2188.27	  445.95
     28.9700	 3505.00	 3393.01	-1831.86	  445.76
     29.0700	 3959.00	 3651.14	-1635.99	  445.56
     29.1700	 4118.00	 3764.83	-1590.68	  445.38
     29.2700	 3573.00	 3441.94	-1812.79	  445.19
     29.3700	 2703.00	 2759.93	-2000.79	  445.01
     29.4700	 1924.00	 2045.76	-2065.61	  444.83
     29.5700	 1315.00	 1499.24	-2128.09	  444.66
     29.6700	 1022.00	 1152.75	-2074.61	  444.48
     29.7700	  946.00	  958.54	-1956.39	  444.32
     29.8700	  891.00	  854.23	-1907.08	  444.15
     29.9700	  839.00	  794.92	-1899.77	  443.99
     30.0700	  813.00	  756.95	-1887.80	  443.83
     30.1700	  788.00	  730.08	-1885.93	  443.67
     30.2700	  728.00	  710.10	-1925.95	  443.52
     30.3700	  688.00	  695.27	-1951.12	  443.37
     30.4700	  694.00	  684.98	-1934.83	  443.23
     30.5700	  692.00	  679.45	-1931.30	  443.08
     30.6700	  703.00	  679.60	-1920.45	  442.94
     30.7700	  747.00	  686.61	-1883.47	  442.81
     30.8700	  681.00	  700.82	-1963.67	  442.67
     30.9700	  754.00	  720.27	-1910.12	  442.54
     31.0700	  792.00	  739.50	-1891.35	  442.42
     31.1700	  733.00	  749.37	-1960.22	  442.29
     31.2700	  743.00	  740.75	-1941.60	  442.17
     31.3700	  760.00	  714.71	-1898.56	  442.05
     31.4700	  664.00	  683.38	-1963.23	  441.93
     31.5700	  654.00	  656.58	-1946.43	  441.82
     31.6700	  669.00	  637.44	-1912.29	  441.71
     31.7700	  647.00	  625.22	-1922.07	  441.60
     31.8700	  621.00	  617.80	-1940.66	  441.50
     31.9700	  627.00	  613.21	-1930.06	  441.40
     32.0700	  628.00	  610.13	-1925.98	  441.30
     32.1700	  663.00	  607.90	-1888.76	  441.20
     32.2700	  668.00	  606.22	-1882.08	  441.11
     32.3700	  618.00	  604.96	-1930.81	  441.02
     32.4700	  622.00	  604.05	-1925.90	  440.93
     32.5700	  633.00	  603.47	-1914.33	  440.84
     32.6700	  632.00	  603.22	-1915.07	  440.76
     32.7700	  613.00	  603.31	-1934.16	  440.68
     32.8700	  599.00	  603.78	-1948.63	  440.60
     32.9700	  617.00	  604.72	-1931.57	  440.52
     33.0700	  599.00	  606.17	-1951.02	  440.45
     33.1700	  644.00	  608.33	-1908.18	  440.38
     33.2700	  642.00	  611.49	-1913.34	  440.31
     33.3700	  668.00	  616.23	-1892.08	  440.24
     33.4700	  634.00	  623.67	-1933.53	  440.18
     33.5700	  660.00	  636.00	-1919.86	  440.12
     33.6700	  662.00	  656.99	-1938.84	  440.06
     33.7700	  673.00	  692.22	-1963.07	  440.00
     33.8700	  721.00	  748.09	-1970.94	  439.95
     33.9700	  826.00	  828.53	-1946.38	  439.90
     34.0700	  959.00	  929.49	-1914.35	  439.85
     34.1700	 1052.00	 1033.84	-1925.69	  439.80
     34.2700	 1237.00	 1109.76	-1816.61	  439.75
     34.3700	 1217.00	 1119.49	-1846.34	  439.71
     34.4700	 1107.00	 1051.18	-1888.03	  439.67
     34.5700	 1003.00	  939.95	-1880.80	  439.63
     34.6700	  876.00	  830.20	-1898.05	  439.59
     34.7700	  727.00	  744.15	-1961.00	  439.56
     34.8700	  723.00	  685.68	-1906.53	  439.53
     34.9700	  707.00	  649.72	-1886.57	  439.50
     35.0700	  677.00	  628.77	-1895.63	  439.47
     35.1700	  667.00	  616.49	-1893.34	  439.44
     35.2700	  658.00	  608.78	-1894.63	  439.42
     35.3700	  620.00	  603.49	-1927.34	  439.39
     35.4700	  595.00	  599.57	-1948.43	  439.37
     35.5700	  563.00	  596.55	-1977.40	  439.35
     35.6700	  630.00	  594.14	-1907.99	  439.34
     35.7700	  608.00	  592.21	-1928.06	  439.32
     35.8700	  616.00	  590.64	-1918.49	  439.31
     35.9700	  574.00	  589.35	-1959.20	  439.30
     36.0700	  589.00	  588.30	-1943.16	  439.29
     36.1700	  618.00	  587.45	-1913.31	  439.28
     36.2700	  588.00	  586.78	-1942.63	  439.27
     36.3700	  575.00	  586.25	-1955.10	  439.27
     36.4700	  601.00	  585.86	-1928.71	  439.27
     36.5700	  572.00	  585.61	-1957.46	  439.27
     36.6700	  608.00	  585.49	-1921.34	  439.27
     36.7700	  597.00	  585.52	-1932.37	  439.27
     36.8700	  590.00	  585.71	-1939.56	  439.27
     36.9700	  581.00	  586.09	-1948.94	  439.28
     37.0700	  650.00	  587.22	-1881.07	  439.29
     37.1700	  566.00	  588.39	-1966.25	  439.29
     37.2700	  574.00	  589.89	-1959.74	  439.30
     37.3700	  608.00	  592.14	-1928.00	  439.32
     37.4700	  633.00	  595.70	-1906.56	  439.33
     37.5700	  612.00	  601.36	-1933.21	  439.35
     37.6700	  597.00	  610.13	-1956.98	  439.36
     37.7700	  633.00	  623.43	-1934.28	  439.38
     37.8700	  652.00	  642.50	-1934.35	  439.40
     37.9700	  658.00	  667.59	-1953.44	  439.42
     38.0700	  698.00	  696.90	-1942.75	  439.44
     38.1700	  789.00	  724.18	-1879.03	  439.47
     38.2700	  760.00	  744.92	-1928.77	  439.49
     38.3700	  742.00	  748.08	-1949.93	  439.52
     38.4700	  725.00	  729.99	-1948.85	  439.54
     38.5700	  667.00	  698.52	-1975.37	  439.57
     38.6700	  640.00	  665.36	-1969.21	  439.60
     38.7700	  606.00	  637.58	-1975.43	  439.63
     38.8700	  582.00	  617.29	-1979.14	  439.67
     38.9700	  563.00	  603.88	-1984.73	  439.70
     39.0700	  616.00	  595.60	-1923.45	  439.74
     39.1700	  574.00	  590.61	-1960.47	  439.77
     39.2700	  607.00	  587.54	-1924.39	  439.81
     39.3700	  642.00	  585.52	-1887.37	  439.85
     39.4700	  592.00	  584.09	-1935.94	  439.89
     39.5700	  588.00	  582.08	-1937.93	  439.93
     39.6700	  607.00	  581.27	-1918.12	  439.97
     39.7700	  566.00	  580.63	-1958.48	  440.01
     39.8700	  571.00	  580.13	-1952.98	  440.06
     39.9700	  622.00	  579.73	-1901.58	  440.10
     40.0700	  556.00	  579.42	-1967.27	  440.15
     40.1700	  610.00	  579.18	-1913.03	  440.20
     40.2700	  580.00	  579.00	-1942.85	  440.25
     40.3700	  593.00	  578.87	-1929.72	  440.29
     40.4700	  607.00	  578.79	-1915.64	  440.34
     40.5700	  589.00	  578.74	-1933.60	  440.40
     40.6700	  626.00	  578.74	-1896.59	  440.45
     40.7700	  567.00	  579.30	-1956.15	  440.50
     40.8700	  571.00	  579.37	-1952.22	  440.55
     40.9700	  586.00	  579.49	-1937.34	  440.61
     41.0700	  557.00	  579.64	-1966.49	  440.67
     41.1700	  574.00	  579.83	-1949.69	  440.72
     41.2700	  576.00	  580.08	-1947.93	  440.78
     41.3700	  545.00	  580.38	-1979.23	  440.84
     41.4700	  597.00	  580.79	-1927.65	  440.90
     41.5700	  551.00	  581.24	-1974.09	  440.96
     41.6700	  581.00	  581.78	-1944.63	  441.02
     41.7700	  569.00	  582.45	-1957.30	  441.08
     41.8700	  591.00	  583.30	-1936.15	  441.14
     41.9700	  558.00	  584.43	-1970.28	  441.20
     42.0700	  596.00	  586.02	-1933.87	  441.26
     42.1700	  572.00	  588.40	-1960.25	  441.33
     42.2700	  582.00	  592.14	-1953.99	  441.39
     42.3700	  564.00	  598.08	-1977.94	  441.46
     42.4700	  580.00	  607.21	-1971.06	  441.52
     42.5700	  592.00	  620.54	-1972.39	  441.59
     42.6700	  635.00	  638.30	-1947.15	  441.66
     42.7700	  636.00	  659.36	-1967.21	  441.73
     42.8700	  656.00	  680.35	-1968.21	  441.79
     42.9700	  699.00	  695.48	-1940.33	  441.86
     43.0700	  696.00	  698.46	-1946.31	  441.93
     43.1700	  677.00	  687.49	-1954.34	  442.00
     43.2700	  635.00	  667.60	-1976.46	  442.07
     43.3700	  647.00	  645.91	-1942.76	  442.14
     43.4700	  574.00	  626.86	-1996.71	  442.22
     43.5700	  618.00	  612.17	-1938.02	  442.29
     43.6700	  588.00	  601.94	-1957.79	  442.36
     43.7700	  601.00	  595.33	-1938.18	  442.43
     43.8700	  590.00	  591.27	-1945.12	  442.51
     43.9700	  610.00	  589.00	-1922.85	  442.58
     44.0700	  589.00	  587.47	-1942.32	  442.65
     44.1700	  564.00	  586.48	-1966.33	  442.73
     44.2700	  579.00	  585.79	-1950.65	  442.80
     44.3700	  607.00	  585.31	-1922.16	  442.88
     44.4700	  643.00	  584.97	-1885.82	  442.95
     44.5700	  579.00	  584.73	-1949.58	  443.03
     44.6700	  594.00	  584.57	-1934.42	  443.11
     44.7700	  579.00	  584.48	-1949.34	  443.18
     44.8700	  611.00	  584.45	-1917.30	  443.26
     44.9700	  589.00	  584.47	-1939.32	  443.34
     45.0700	  600.00	  584.76	-1928.61	  443.41
     45.1700	  610.00	  584.87	-1918.73	  443.49
     45.2700	  573.00	  585.01	-1955.86	  443.57
     45.3700	  583.00	  585.17	-1946.02	  443.65
     45.4700	  600.00	  585.36	-1929.21	  443.73
     45.5700	  571.00	  585.58	-1958.44	  443.80
     45.6700	  597.00	  585.84	-1932.69	  443.88
     45.7700	  609.00	  586.12	-1920.97	  443.96
     45.8700	  580.00	  586.52	-1950.37	  444.04
     45.9700	  574.00	  586.86	-1956.71	  444.12
     46.0700	  553.00	  587.23	-1978.09	  444.20
     46.1700	  558.00	  587.65	-1973.50	  444.28
     46.2700	  608.00	  588.10	-1923.95	  444.36
     46.3700	  621.00	  588.60	-1911.45	  444.44
     46.4700	  639.00	  588.96	-1893.82	  444.52
     46.5700	  592.00	  589.58	-1941.43	  444.60
     46.6700	  600.00	  590.39	-1934.24	  444.68
     46.7700	  588.00	  591.15	-1947.00	  444.76
     46.8700	  617.00	  592.02	-1918.87	  444.84
     46.9700	  563.00	  593.01	-1973.86	  444.92
     47.0700	  654.00	  594.19	-1884.04	  445.00
     47.1700	  557.00	  595.63	-1982.48	  445.08
     47.2700	  589.00	  597.49	-1952.34	  445.16
     47.3700	  629.00	  600.04	-1914.89	  445.23
     47.4700	  647.00	  603.69	-1900.54	  445.31
     47.5700	  572.00	  609.02	-1980.87	  445.39
     47.6700	  583.00	  616.67	-1977.52	  445.47
     47.7700	  618.00	  627.21	-1953.06	  445.55
     47.8700	  632.00	  640.76	-1952.61	  445.63
     47.9700	  667.00	  656.69	-1933.54	  445.71
     48.0700	  674.00	  673.11	-1942.96	  445.79
     48.1700	  660.00	  686.62	-1970.48	  445.87
     48.2700	  666.00	  693.11	-1970.96	  445.95
     48.3700	  687.00	  690.36	-1947.21	  446.03
     48.4700	  640.00	  680.25	-1984.10	  446.11
     48.5700	  685.00	  667.12	-1925.97	  446.19
     48.6700	  624.00	  655.07	-1974.92	  446.27
     48.7700	  588.00	  645.28	-2001.13	  446.34
     48.8700	  591.00	  638.91	-1991.76	  446.42
     48.9700	  588.00	  635.95	-1991.80	  446.50
     49.0700	  576.00	  635.98	-2003.84	  446.58
     49.1700	  617.00	  638.56	-1965.41	  446.65
     49.2700	  606.00	  643.38	-1981.24	  446.73
     49.3700	  594.00	  650.53	-2000.38	  446.81
     49.4700	  647.00	  660.69	-1957.54	  446.89
     49.5700	  651.00	  675.78	-1968.63	  446.96
     49.6700	  666.00	  700.23	-1978.08	  447.04
     49.7700	  789.00	  743.13	-1897.98	  447.11
     49.8700	  857.00	  820.71	-1907.56	  447.19
     49.9700	  963.00	  957.06	-1937.91	  447.27
     50.0700	 1227.00	 1179.96	-1896.82	  447.34
     50.1700	 1642.00	 1508.87	-1810.72	  447.42
     50.2700	 2098.00	 1936.56	-1782.41	  447.49
     50.3700	 2473.00	 2410.71	-1881.57	  447.56
     50.4700	 2873.00	 2825.10	-1895.95	  447.64
     50.5700	 2972.00	 3039.97	-2011.82	  447.71
     50.6700	 2874.00	 2958.85	-2028.71	  447.78
     50.7700	 2596.00	 2617.93	-1965.78	  447.86
     50.8700	 2058.00	 2154.45	-2040.30	  447.93
     50.9700	 1574.00	 1699.46	-2069.31	  448.00
     51.0700	 1207.00	 1330.05	-2066.90	  448.07
     51.1700	 1043.00	 1070.40	-1971.25	  448.14
     51.2700	  900.00	  909.72	-1953.58	  448.21
     51.3700	  857.00	  820.32	-1907.17	  448.28
     51.4700	  742.00	  773.32	-1975.17	  448.35
     51.5700	  783.00	  747.00	-1907.85	  448.42
     51.6700	  755.00	  728.61	-1917.46	  448.49
     51.7700	  716.00	  713.21	-1941.06	  448.56
     51.8700	  679.00	  700.15	-1965.00	  448.63
     51.9700	  655.00	  689.93	-1978.79	  448.70
     52.0700	  671.00	  682.71	-1955.56	  448.76
     52.1700	  701.00	  677.93	-1920.78	  448.83
     52.2700	  671.00	  674.44	-1947.29	  448.89
     52.3700	  702.00	  670.99	-1912.84	  448.96
     52.4700	  738.00	  667.13	-1872.99	  449.03
     52.5700	  684.00	  663.48	-1923.33	  449.09
     52.6700	  679.00	  661.12	-1925.97	  449.15
     52.7700	  678.00	  661.14	-1926.99	  449.22
     52.8700	  648.00	  664.70	-1960.55	  449.28
     52.9700	  692.00	  673.28	-1925.13	  449.34
     53.0700	  687.00	  688.98	-1945.83	  449.40
     53.1700	  714.00	  714.64	-1944.49	  449.46
     53.2700	  740.00	  753.60	-1957.45	  449.53
     53.3700	  786.00	  808.96	-1966.81	  449.58
     53.4700	  938.00	  882.27	-1888.12	  449.64
     53.5700	  957.00	  971.92	-1958.77	  449.70
     53.6700	 1083.00	 1071.18	-1932.03	  449.76
     53.7700	 1232.00	 1166.27	-1878.12	  449.82
     53.8700	 1267.00	 1235.74	-1912.59	  449.88
     53.9700	 1273.00	 1257.46	-1928.32	  449.93
     54.0700	 1227.00	 1222.91	-1939.77	  449.99
     54.1700	 1121.00	 1145.00	-1967.85	  450.04
     54.2700	 1035.00	 1047.31	-1956.16	  450.10
     54.3700	  959.00	  949.85	-1934.71	  450.15
     54.4700	  816.00	  864.51	-1992.36	  450.20
     54.5700	  810.00	  796.39	-1930.24	  450.26
     54.6700	  768.00	  746.03	-1921.88	  450.31
     54.7700	  671.00	  711.18	-1984.03	  450.36
     54.8700	  686.00	  688.41	-1946.26	  450.41
     54.9700	  636.00	  674.22	-1982.08	  450.46
     55.0700	  674.00	  665.77	-1935.62	  450.51
     55.1700	  686.00	  661.02	-1918.87	  450.56
     55.2700	  692.00	  658.70	-1910.56	  450.60
     55.3700	  653.00	  658.11	-1948.96	  450.65
     55.4700	  658.00	  658.87	-1944.72	  450.70
     55.5700	  610.00	  660.84	-1994.70	  450.74
     55.6700	  701.00	  664.04	-1906.89	  450.79
     55.7700	  668.00	  668.56	-1944.42	  450.83
     55.8700	  675.00	  674.69	-1943.54	  450.87
     55.9700	  659.00	  682.91	-1967.76	  450.92
     56.0700	  649.00	  694.22	-1989.07	  450.96
     56.1700	  662.00	  710.50	-1992.35	  451.00
     56.2700	  703.00	  735.17	-1976.02	  451.04
     56.3700	  762.00	  774.02	-1955.87	  451.08
     56.4700	  807.00	  835.91	-1972.76	  451.12
     56.5700	  901.00	  932.65	-1975.50	  451.16
     56.6700	 1048.00	 1077.48	-1973.33	  451.19
     56.7700	 1295.00	 1281.40	-1930.25	  451.23
     56.8700	 1575.00	 1547.62	-1916.48	  451.26
     56.9700	 1895.00	 1865.35	-1914.20	  451.30
     57.0700	 2235.00	 2203.79	-1912.64	  451.33
     57.1700	 2548.00	 2507.77	-1903.62	  451.37
     57.2700	 2711.00	 2702.53	-1935.38	  451.40
     57.3700	 2708.00	 2723.47	-1959.32	  451.43
     57.4700	 2563.00	 2562.33	-1943.18	  451.46
     57.5700	 2234.00	 2275.45	-1985.30	  451.49
     57.6700	 1842.00	 1940.12	-2041.97	  451.52
     57.7700	 1548.00	 1616.97	-2012.82	  451.55
     57.8700	 1278.00	 1341.57	-2007.42	  451.57
     57.9700	 1090.00	 1128.44	-1982.29	  451.60
     58.0700	  946.00	  976.98	-1974.83	  451.63
     58.1700	  814.00	  878.00	-2007.86	  451.65
     58.2700	  835.00	  819.67	-1928.52	  451.67
     58.3700	  782.00	  791.90	-1953.75	  451.70
     58.4700	  803.00	  787.98	-1928.83	  451.72
     58.5700	  835.00	  805.14	-1913.99	  451.74
     58.6700	  852.00	  842.81	-1934.66	  451.76
     58.7700	  876.00	  900.54	-1968.39	  451.78
     58.8700	  947.00	  976.03	-1972.88	  451.80
     58.9700	 1015.00	 1063.29	-1992.15	  451.82
     59.0700	 1137.00	 1151.82	-1958.67	  451.83
     59.1700	 1191.00	 1228.54	-1981.39	  451.85
     59.2700	 1193.00	 1283.87	-2034.73	  451.86
     59.3700	 1220.00	 1315.58	-2039.43	  451.88
     59.4700	 1330.00	 1324.31	-1938.17	  451.89
     59.5700	 1327.00	 1309.67	-1926.52	  451.90
     59.6700	 1289.00	 1274.85	-1929.71	  451.92
     59.7700	 1326.00	 1230.98	-1848.83	  451.93
     59.8700	 1237.00	 1192.29	-1899.14	  451.94
     59.9700	 1215.00	 1169.94	-1898.79	  451.95
     60.0700	 1259.00	 1170.94	-1855.79	  451.95
     60.1700	 1254.00	 1200.37	-1890.22	  451.96
     60.2700	 1334.00	 1261.19	-1871.04	  451.97
     60.3700	 1495.00	 1350.73	-1799.58	  451.97
     60.4700	 1560.00	 1456.79	-1840.64	  451.97
     60.5700	 1640.00	 1556.50	-1860.35	  451.98
     60.6700	 1635.00	 1618.95	-1927.80	  451.98
     60.7700	 1518.00	 1616.41	-2042.27	  451.98
     60.8700	 1487.00	 1542.01	-1998.86	  451.98
     60.9700	 1418.00	 1414.80	-1940.65	  451.98
     61.0700	 1230.00	 1264.92	-1978.77	  451.98
     61.1700	 1035.00	 1118.37	-2027.22	  451.98
     61.2700	  993.00	  992.07	-1942.93	  451.97
     61.3700	  868.00	  894.36	-1970.21	  451.97
     61.4700	  832.00	  827.01	-1938.86	  451.96
     61.5700	  788.00	  788.02	-1943.87	  451.96
     61.6700	  761.00	  774.56	-1957.41	  451.95
     61.7700	  789.00	  785.13	-1939.98	  451.94
     61.8700	  838.00	  820.61	-1926.46	  451.93
     61.9700	  910.00	  883.72	-1917.57	  451.92
     62.0700	 1031.00	  977.25	-1890.10	  451.91
     62.1700	 1131.00	 1101.51	-1914.36	  451.90
     62.2700	 1301.00	 1251.46	-1894.31	  451.89
     62.3700	 1445.00	 1414.42	-1913.27	  451.87
     62.4700	 1573.00	 1568.47	-1939.32	  451.86
     62.5700	 1682.00	 1683.30	-1945.15	  451.84
     62.6700	 1751.00	 1728.02	-1920.87	  451.83
     62.7700	 1627.00	 1687.88	-2004.73	  451.81
     62.8700	 1518.00	 1575.45	-2001.30	  451.79
     62.9700	 1395.00	 1421.06	-1969.92	  451.77
     63.0700	 1144.00	 1255.58	-2055.43	  451.75
     63.1700	 1120.00	 1101.49	-1925.34	  451.73
     63.2700	  941.00	  971.86	-1974.71	  451.70
     63.3700	  876.00	  871.66	-1939.51	  451.68
     63.4700	  774.00	  799.92	-1969.77	  451.65
     63.5700	  794.00	  752.15	-1902.00	  451.63
     63.6700	  723.00	  722.59	-1943.44	  451.60
     63.7700	  693.00	  706.03	-1956.88	  451.57
     63.8700	  674.00	  698.73	-1968.59	  451.55
     63.9700	  752.00	  698.62	-1890.47	  451.52
     64.0700	  742.00	  705.25	-1907.10	  451.49
     64.1700	  680.00	  719.68	-1983.53	  451.45
     64.2700	  768.00	  743.66	-1919.51	  451.42
     64.3700	  790.00	  781.21	-1935.07	  451.39
     64.4700	  888.00	  835.17	-1891.02	  451.35
     64.5700	  904.00	  908.24	-1948.10	  451.32
     64.6700	 1022.00	 1001.40	-1923.25	  451.28
     64.7700	 1188.00	 1112.46	-1868.31	  451.24
     64.8700	 1266.00	 1234.74	-1912.59	  451.20
     64.9700	 1323.00	 1356.14	-1976.99	  451.16
     65.0700	 1483.00	 1459.92	-1920.77	  451.12
     65.1700	 1553.00	 1528.30	-1919.15	  451.08
     65.2700	 1505.00	 1547.82	-1986.67	  451.04
     65.3700	 1490.00	 1514.21	-1968.07	  451.00
     65.4700	 1367.00	 1435.37	-2012.22	  450.95
     65.5700	 1276.00	 1327.94	-1995.79	  450.91
     65.6700	 1153.00	 1210.72	-2001.57	  450.86
     65.7700	 1060.00	 1098.07	-1981.92	  450.81
     65.8700	  972.00	  998.62	-1970.47	  450.76
     65.9700	  854.00	  915.55	-2005.41	  450.71
     66.0700	  816.00	  849.29	-1977.15	  450.66
     66.1700	  772.00	  798.47	-1970.32	  450.61
     66.2700	  676.00	  760.80	-2028.65	  450.56
     66.3700	  726.00	  733.65	-1951.50	  450.51
     66.4700	  678.00	  714.57	-1980.42	  450.45
     66.5700	  700.00	  701.40	-1945.25	  450.40
     66.6700	  674.00	  692.71	-1962.56	  450.34
     66.7700	  655.00	  687.50	-1976.35	  450.28
     66.8700	  641.00	  685.19	-1988.04	  450.22
     66.9700	  638.00	  685.48	-1991.34	  450.16
     67.0700	  637.00	  688.41	-1995.26	  450.10
     67.1700	  696.00	  694.38	-1942.23	  450.04
     67.2700	  746.00	  704.50	-1902.36	  449.98
     67.3700	  722.00	  720.60	-1942.45	  449.92
     67.4700	  713.00	  745.57	-1976.43	  449.85
     67.5700	  803.00	  784.02	-1924.87	  449.79
     67.6700	  835.00	  841.89	-1950.74	  449.72
     67.7700	  905.00	  926.26	-1965.11	  449.65
     67.8700	 1035.00	 1044.28	-1953.13	  449.58
     67.9700	 1285.00	 1201.45	-1860.30	  449.51
     68.0700	 1377.00	 1399.41	-1966.26	  449.44
     68.1700	 1665.00	 1633.57	-1912.42	  449.37
     68.2700	 1974.00	 1891.01	-1860.86	  449.30
     68.3700	 2180.00	 2148.94	-1912.79	  449.23
     68.4700	 2392.00	 2373.89	-1925.75	  449.15
     68.5700	 2524.00	 2525.31	-1945.16	  449.08
     68.6700	 2630.00	 2567.83	-1881.68	  449.00
     68.7700	 2457.00	 2490.08	-1976.94	  448.93
     68.8700	 2219.00	 2312.16	-2037.01	  448.85
     68.9700	 2036.00	 2072.90	-1980.75	  448.77
     69.0700	 1860.00	 1811.64	-1895.49	  448.69
     69.1700	 1593.00	 1558.83	-1909.68	  448.61
     69.2700	 1383.00	 1334.13	-1894.98	  448.53
     69.3700	 1170.00	 1147.76	-1921.61	  448.44
     69.4700	 1028.00	 1002.18	-1918.03	  448.36
     69.5700	  977.00	  894.37	-1861.22	  448.28
     69.6700	  906.00	  818.11	-1855.96	  448.19
     69.7700	  882.00	  766.09	-1827.94	  448.10
     69.8700	  823.00	  731.46	-1852.31	  448.02
     69.9700	  719.00	  708.61	-1933.47	  447.93
     70.0700	  780.00	  693.45	-1857.30	  447.84
     70.1700	  724.00	  683.19	-1903.04	  447.75
     70.2700	  686.00	  676.09	-1933.95	  447.66
     70.3700	  675.00	  671.13	-1939.98	  447.56
     70.4700	  680.00	  667.73	-1931.58	  447.47
     70.5700	  724.00	  665.56	-1885.42	  447.38
     70.6700	  695.00	  664.52	-1913.37	  447.28
     70.7700	  646.00	  664.57	-1962.43	  447.19
     70.8700	  776.00	  665.84	-1833.69	  447.09
     70.9700	  684.00	  668.38	-1928.24	  446.99
     71.0700	  679.00	  673.10	-1937.95	  446.89
     71.1700	  659.00	  680.64	-1965.50	  446.79
     71.2700	  654.00	  692.39	-1982.24	  446.69
     71.3700	  727.00	  710.38	-1927.23	  446.59
     71.4700	  796.00	  737.45	-1885.30	  446.49
     71.5700	  811.00	  777.24	-1910.09	  446.39
     71.6700	  817.00	  833.89	-1960.74	  446.28
     71.7700	  897.00	  911.62	-1958.47	  446.18
     71.8700	 1019.00	 1013.77	-1938.62	  446.07
     71.9700	 1169.00	 1141.72	-1916.58	  445.97
     72.0700	 1284.00	 1293.70	-1953.55	  445.86
     72.1700	 1432.00	 1463.62	-1975.47	  445.75
     72.2700	 1593.00	 1640.33	-1991.18	  445.64
     72.3700	 1788.00	 1806.95	-1962.80	  445.53
     72.4700	 1813.00	 1941.25	-2072.10	  445.42
     72.5700	 1939.00	 2019.37	-2024.23	  445.31
     72.6700	 1979.00	 2024.33	-1989.18	  445.19
     72.7700	 1973.00	 1954.90	-1925.76	  445.08
     72.8700	 1694.00	 1827.12	-2076.98	  444.97
     72.9700	 1728.00	 1663.04	-1878.89	  444.85
     73.0700	 1469.00	 1486.08	-1960.94	  444.74
     73.1700	 1286.00	 1313.95	-1971.80	  444.62
     73.2700	 1101.00	 1158.45	-2001.30	  444.50
     73.3700	  978.00	 1026.17	-1992.02	  444.38
     73.4700	  904.00	  919.39	-1959.24	  444.26
     73.5700	  795.00	  837.07	-1985.92	  444.14
     73.6700	  738.00	  776.13	-1981.99	  444.02
     73.7700	  747.00	  732.51	-1929.36	  443.90
     73.8700	  742.00	  702.06	-1903.91	  443.78
     73.9700	  720.00	  681.16	-1905.02	  443.65
     74.0700	  707.00	  666.44	-1903.29	  443.53
     74.1700	  690.00	  656.85	-1910.70	  443.40
     74.2700	  671.00	  650.48	-1923.34	  443.28
     74.3700	  657.00	  646.47	-1933.32	  443.15
     74.4700	  693.00	  644.26	-1895.11	  443.02
     74.5700	  658.00	  643.52	-1929.37	  442.89
     74.6700	  643.00	  643.96	-1944.81	  442.76
     74.7700	  701.00	  645.32	-1888.18	  442.63
     74.8700	  692.00	  647.28	-1899.14	  442.50
     74.9700	  647.00	  649.45	-1946.30	  442.37
     75.0700	  695.00	  651.27	-1900.12	  442.24
     75.1700	  671.00	  652.35	-1925.20	  442.11
     75.2700	  710.00	  652.25	-1886.10	  441.97
     75.3700	  720.00	  650.89	-1874.74	  441.84
     75.4700	  687.00	  648.58	-1905.43	  441.70
     75.5700	  658.00	  645.91	-1931.76	  441.57
     75.6700	  707.00	  643.61	-1880.46	  441.43
     75.7700	  689.00	  642.46	-1897.31	  441.29
     75.8700	  668.00	  643.18	-1919.03	  441.15
     75.9700	  653.00	  646.80	-1937.65	  441.02
     76.0700	  661.00	  654.16	-1937.01	  440.88
     76.1700	  690.00	  666.22	-1920.08	  440.74
     76.2700	  709.00	  683.90	-1918.75	  440.59
     76.3700	  727.00	  707.89	-1924.74	  440.45
     76.4700	  721.00	  738.50	-1961.35	  440.31
     76.5700	  752.00	  775.42	-1967.27	  440.17
     76.6700	  772.00	  817.55	-1989.40	  440.02
     76.7700	  903.00	  862.81	-1903.66	  439.88
     76.8700	  828.00	  908.00	-2023.85	  439.73
     76.9700	  948.00	  948.75	-1944.61	  439.59
     77.0700	  983.00	  979.82	-1940.67	  439.44
     77.1700	  990.00	  996.07	-1949.93	  439.29
     77.2700	  925.00	  994.31	-2013.16	  439.14
     77.3700	  916.00	  974.79	-2002.64	  439.00
     77.4700	  953.00	  941.10	-1931.95	  438.85
     77.5700	  845.00	  898.47	-1997.32	  438.70
     77.6700	  864.00	  851.86	-1931.71	  438.55
     77.7700	  844.00	  805.79	-1905.64	  438.40
     77.8700	  715.00	  763.05	-1991.90	  438.24
     77.9700	  740.00	  725.51	-1929.36	  438.09
     78.0700	  708.00	  694.08	-1929.94	  437.94
     78.1700	  685.00	  668.87	-1927.72	  437.78
     78.2700	  664.00	  649.41	-1929.26	  437.63
     78.3700	  629.00	  634.89	-1949.74	  437.48
     78.4700	  673.00	  624.36	-1895.21	  437.32
     78.5700	  667.00	  616.90	-1893.75	  437.16
     78.6700	  604.00	  611.69	-1951.54	  437.01
     78.7700	  625.00	  608.03	-1926.88	  436.85
     78.8700	  647.00	  605.53	-1902.39	  436.69
     78.9700	  604.00	  603.82	-1943.67	  436.53
     79.0700	  640.00	  602.67	-1906.52	  436.37
     79.1700	  592.00	  601.94	-1953.79	  436.22
     79.2700	  648.00	  601.56	-1897.41	  436.06
     79.3700	  628.00	  601.51	-1917.36	  435.89
     79.4700	  607.00	  601.78	-1938.63	  435.73
     79.5700	  640.00	  602.40	-1906.25	  435.57
     79.6700	  624.00	  603.43	-1923.28	  435.41
     79.7700	  580.00	  604.94	-1968.79	  435.25
     79.8700	  616.00	  607.06	-1934.91	  435.08
     79.9700	  618.00	  609.97	-1935.82	  434.92
     80.0700	  588.00	  613.97	-1969.82	  434.76
     80.1700	  572.00	  619.50	-1991.35	  434.59
     80.2700	  642.00	  627.17	-1929.03	  434.43
     80.3700	  640.00	  637.89	-1941.75	  434.26
     80.4700	  675.00	  652.58	-1921.43	  434.09
     80.5700	  709.00	  673.11	-1907.96	  433.93
     80.6700	  697.00	  700.83	-1947.68	  433.76
     80.7700	  762.00	  737.33	-1919.18	  433.59
     80.8700	  813.00	  783.99	-1914.84	  433.42
     80.9700	  899.00	  841.60	-1886.45	  433.26
     81.0700	  966.00	  910.00	-1887.85	  433.09
     81.1700	 1013.00	  987.62	-1918.47	  432.92
     81.2700	 1097.00	 1071.26	-1918.11	  432.75
     81.3700	 1187.00	 1155.99	-1912.85	  432.58
     81.4700	 1277.00	 1235.30	-1902.15	  432.41
     81.5700	 1290.00	 1301.95	-1955.80	  432.24
     81.6700	 1340.00	 1349.39	-1953.24	  432.07
     81.7700	 1351.00	 1373.47	-1966.32	  431.89
     81.8700	 1364.00	 1373.06	-1952.92	  431.72
     81.9700	 1328.00	 1349.64	-1965.49	  431.55
     82.0700	 1300.00	 1306.64	-1950.49	  431.38
     82.1700	 1233.00	 1249.02	-1959.87	  431.20
     82.2700	 1180.00	 1182.40	-1946.25	  431.03
     82.3700	 1071.00	 1111.99	-1984.84	  430.86
     82.4700	  977.00	 1042.13	-2008.98	  430.68
     82.5700	  940.00	  976.08	-1979.93	  430.51
     82.6700	  894.00	  916.13	-1965.98	  430.33
     82.7700	  862.00	  863.48	-1945.33	  430.16
     82.8700	  753.00	  818.26	-2009.12	  429.98
     82.9700	  762.00	  779.89	-1961.74	  429.80
     83.0700	  702.00	  747.39	-1989.24	  429.63
     83.1700	  725.00	  719.86	-1938.71	  429.45
     83.2700	  700.00	  696.66	-1940.51	  429.28
     83.3700	  685.00	  677.36	-1936.21	  429.10
     83.4700	  650.00	  661.70	-1955.55	  428.92
     83.5700	  633.00	  649.52	-1960.37	  428.74
     83.6700	  626.00	  640.67	-1958.52	  428.57
     83.7700	  589.00	  635.01	-1989.86	  428.39
     83.8700	  637.00	  632.34	-1939.19	  428.21
     83.9700	  607.00	  632.40	-1969.25	  428.03
     84.0700	  656.00	  634.80	-1922.65	  427.85
     84.1700	  632.00	  638.90	-1950.75	  427.67
     84.2700	  646.00	  644.32	-1942.17	  427.49
     84.3700	  677.00	  650.17	-1917.02	  427.31
     84.4700	  667.00	  655.51	-1932.36	  427.13
     84.5700	  576.00	  659.60	-2027.45	  426.95
     84.6700	  630.00	  661.54	-1975.39	  426.77
     84.7700	  621.00	  660.80	-1983.65	  426.59
     84.8700	  627.00	  657.32	-1974.17	  426.41
     84.9700	  625.00	  651.48	-1970.33	  426.23
     85.0700	  593.00	  643.98	-1994.83	  426.05
     85.1700	  619.00	  635.58	-1960.44	  425.87
     85.2700	  574.00	  627.01	-1996.87	  425.69
     85.3700	  623.00	  618.87	-1939.72	  425.51
     85.4700	  610.00	  611.60	-1945.45	  425.33
     85.5700	  615.00	  605.56	-1934.41	  425.15
     85.6700	  549.00	  600.94	-1995.79	  424.96
     85.7700	  583.00	  597.87	-1958.72	  424.78
     85.8700	  596.00	  596.39	-1944.25	  424.60
     85.9700	  604.00	  596.53	-1936.38	  424.42
     86.0700	  624.00	  598.27	-1918.13	  424.24
     86.1700	  585.00	  601.59	-1960.44	  424.06
     86.2700	  615.00	  606.43	-1935.28	  423.87
     86.3700	  576.00	  612.71	-1980.56	  423.69
     86.4700	  620.00	  620.31	-1944.16	  423.51
     86.5700	  681.00	  629.03	-1891.89	  423.33
     86.6700	  659.00	  638.62	-1923.47	  423.15
     86.7700	  670.00	  648.73	-1922.58	  422.96
     86.8700	  646.00	  658.93	-1956.78	  422.78
     86.9700	  651.00	  668.79	-1961.65	  422.60
     87.0700	  631.00	  677.91	-1990.76	  422.42
     87.1700	  665.00	  686.04	-1964.89	  422.23
     87.2700	  694.00	  693.25	-1943.10	  422.05
     87.3700	  656.00	  699.84	-1987.69	  421.87
     87.4700	  655.00	  706.24	-1995.09	  421.69
     87.5700	  715.00	  712.79	-1941.64	  421.51
     87.6700	  710.00	  719.62	-1953.47	  421.32
     87.7700	  691.00	  726.56	-1979.42	  421.14
     87.8700	  728.00	  733.17	-1949.03	  420.96
     87.9700	  719.00	  738.70	-1963.56	  420.78
     88.0700	  720.00	  742.22	-1966.07	  420.60
     88.1700	  718.00	  742.78	-1968.63	  420.41
     88.2700	  734.00	  739.76	-1949.62	  420.23
     88.3700	  726.00	  733.05	-1950.90	  420.05
     88.4700	  760.00	  723.10	-1906.95	  419.87
     88.5700	  685.00	  710.75	-1969.60	  419.69
     88.6700	  658.00	  696.99	-1982.84	  419.51
     88.7700	  689.00	  682.38	-1937.23	  419.33
     88.8700	  654.00	  668.62	-1958.48	  419.15
     88.9700	  685.00	  656.02	-1914.87	  418.96
     89.0700	  638.00	  645.12	-1950.97	  418.78
     89.1700	  646.00	  636.27	-1934.12	  418.60
     89.2700	  614.00	  629.67	-1959.53	  418.42
     89.3700	  638.00	  625.33	-1931.18	  418.24
     89.4700	  629.00	  623.09	-1937.94	  418.06
     89.5700	  657.00	  622.66	-1909.51	  417.88
     89.6700	  609.00	  623.64	-1958.49	  417.70
     89.7700	  597.00	  625.54	-1972.40	  417.53
     89.8700	  634.00	  627.83	-1937.68	  417.35
     89.9700	  662.00	  629.91	-1911.76	  417.17
     90.0700	  729.00	  631.23	-1846.08	  416.99
     90.1700	  699.00	  631.34	-1876.19	  416.81
     90.2700	  688.00	  629.99	-1885.85	  416.63
     90.3700	  691.00	  627.18	-1880.03	  416.46
     90.4700	  619.00	  623.12	-1947.97	  416.28
     90.5700	  659.00	  618.16	-1903.01	  416.10
     90.6700	  623.00	  612.68	-1933.53	  415.93
     90.7700	  616.00	  607.06	-1934.91	  415.75
     90.8700	  630.00	  601.59	-1915.44	  415.57
     90.9700	  606.00	  596.51	-1934.36	  415.40
     91.0700	  583.00	  591.98	-1952.83	  415.22
     91.1700	  606.00	  588.11	-1925.96	  415.05
     91.2700	  605.00	  584.93	-1923.79	  414.87
     91.3700	  569.00	  582.45	-1957.30	  414.70
     91.4700	  642.00	  580.63	-1882.48	  414.52
     91.5700	  560.00	  579.41	-1963.26	  414.35
     91.6700	  570.00	  578.74	-1952.59	  414.18
     91.7700	  586.00	  578.57	-1936.42	  414.00
     91.8700	  563.00	  578.89	-1959.74	  413.83
     91.9700	  606.00	  579.70	-1917.56	  413.66
     92.0700	  600.00	  581.06	-1924.91	  413.49
     92.1700	  560.00	  583.04	-1966.89	  413.32
     92.2700	  589.00	  585.77	-1940.62	  413.15
     92.3700	  615.00	  589.42	-1918.27	  412.98
     92.4700	  593.00	  594.19	-1945.05	  412.81
     92.5700	  608.00	  600.31	-1936.16	  412.64
     92.6700	  621.00	  608.00	-1930.85	  412.47
     92.7700	  638.00	  617.47	-1923.33	  412.30
     92.8700	  593.00	  628.92	-1979.77	  412.13
     92.9700	  624.00	  642.45	-1962.30	  411.96
     93.0700	  629.00	  658.09	-1972.94	  411.80
     93.1700	  615.00	  675.74	-2004.59	  411.63
     93.2700	  661.00	  695.18	-1978.04	  411.47
     93.3700	  708.00	  716.05	-1951.90	  411.30
     93.4700	  683.00	  737.80	-1998.66	  411.14
     93.5700	  754.00	  759.76	-1949.61	  410.97
     93.6700	  734.00	  781.12	-1990.98	  410.81
     93.7700	  747.00	  801.07	-1997.92	  410.65
     93.8700	  758.00	  818.91	-2004.76	  410.48
     93.9700	  863.00	  834.30	-1915.16	  410.32
     94.0700	  836.00	  847.36	-1955.21	  410.16
     94.1700	  847.00	  858.59	-1955.45	  410.00
     94.2700	  855.00	  868.74	-1957.60	  409.84
     94.3700	  857.00	  878.24	-1965.10	  409.68
     94.4700	  893.00	  888.29	-1939.15	  409.52
     94.5700	  869.00	  898.99	-1973.84	  409.36
     94.6700	  893.00	  910.60	-1961.45	  409.21
     94.7700	  921.00	  923.32	-1946.17	  409.05
     94.8700	  963.00	  937.36	-1918.21	  408.89
     94.9700	  962.00	  952.81	-1934.66	  408.74
     95.0700	 1037.00	  969.56	-1876.42	  408.58
     95.1700	  972.00	  987.10	-1958.95	  408.43
     95.2700	  997.00	 1004.44	-1951.29	  408.28
     95.3700	 1032.00	 1020.14	-1932.00	  408.12
     95.4700	 1072.00	 1032.41	-1904.27	  407.97
     95.5700	 1068.00	 1039.34	-1915.19	  407.82
     95.6700	 1031.00	 1039.24	-1952.10	  407.67
     95.7700	  979.00	 1031.12	-1995.98	  407.52
     95.8700	 1042.00	 1014.92	-1916.78	  407.37
     95.9700	  945.00	  991.60	-1990.46	  407.23
     96.0700	  935.00	  962.90	-1971.75	  407.08
     96.1700	  925.00	  930.97	-1949.82	  406.93
     96.2700	  916.00	  898.11	-1925.96	  406.79
     96.3700	  845.00	  866.55	-1965.40	  406.64
     96.4700	  896.00	  838.34	-1886.19	  406.50
     96.5700	  835.00	  815.32	-1924.17	  406.36
     96.6700	  829.00	  799.06	-1913.92	  406.21
     96.7700	  811.00	  790.86	-1923.71	  406.07
     96.8700	  832.00	  791.74	-1903.60	  405.93
     96.9700	  844.00	  802.50	-1902.35	  405.79
     97.0700	  833.00	  823.67	-1934.53	  405.65
     97.1700	  872.00	  855.56	-1927.41	  405.52
     97.2700	  981.00	  898.14	-1860.99	  405.38
     97.3700	  957.00	  951.09	-1937.94	  405.24
     97.4700	 1056.00	 1013.66	-1901.51	  405.11
     97.5700	 1120.00	 1084.61	-1908.46	  404.97
     97.6700	 1156.00	 1162.20	-1950.05	  404.84
     97.7700	 1239.00	 1244.01	-1948.86	  404.71
     97.8700	 1382.00	 1327.02	-1888.87	  404.58
     97.9700	 1331.00	 1407.56	-2020.41	  404.45
     98.0700	 1493.00	 1481.42	-1932.27	  404.32
     98.1700	 1488.00	 1544.05	-1999.90	  404.19
     98.2700	 1535.00	 1590.99	-1999.84	  404.06
     98.3700	 1577.00	 1618.58	-1985.43	  403.94
     98.4700	 1624.00	 1624.71	-1944.57	  403.81
     98.5700	 1553.00	 1609.33	-2000.18	  403.69
     98.6700	 1514.00	 1574.34	-2004.19	  403.57
     98.7700	 1565.00	 1523.18	-1902.03	  403.44
     98.8700	 1389.00	 1460.06	-2014.91	  403.32
     98.9700	 1395.00	 1389.39	-1938.24	  403.20
     99.0700	 1259.00	 1315.38	-2000.23	  403.08
     99.1700	 1221.00	 1241.82	-1964.67	  402.97
     99.2700	 1140.00	 1172.03	-1975.88	  402.85
     99.3700	 1092.00	 1108.81	-1960.66	  402.73
     99.4700	 1006.00	 1054.46	-1992.31	  402.62
     99.5700	 1011.00	 1010.83	-1943.68	  402.51
     99.6700	  998.00	  979.34	-1925.19	  402.39
     99.7700	  979.00	  961.07	-1925.92	  402.28
     99.8700	  993.00	  956.78	-1907.63	  402.17
     99.9700	 1004.00	  966.90	-1906.75	  402.06
    100.0700	  986.00	  991.58	-1949.43	  401.96
    100.1700	 1078.00	 1030.66	-1896.51	  401.85
    100.2700	 1161.00	 1083.66	-1866.51	  401.75
    100.3700	 1251.00	 1149.80	-1842.65	  401.64
    100.4700	 1253.00	 1227.82	-1918.67	  401.54
    100.5700	 1322.00	 1316.08	-1937.93	  401.44
    100.6700	 1469.00	 1412.40	-1887.25	  401.34
    100.7700	 1481.00	 1513.95	-1976.80	  401.24
    100.8700	 1542.00	 1617.67	-2019.52	  401.14
    100.9700	 1734.00	 1719.73	-1929.59	  401.04
    101.0700	 1832.00	 1816.24	-1928.09	  400.95
    101.1700	 1984.00	 1903.37	-1863.23	  400.86
    101.2700	 1868.00	 1977.89	-2053.74	  400.76
    101.3700	 2025.00	 2037.40	-1956.25	  400.67
    101.4700	 2092.00	 2080.45	-1932.30	  400.58
    101.5700	 2114.00	 2106.26	-1936.11	  400.49
    101.6700	 2078.00	 2114.46	-1980.31	  400.41
    101.7700	 2193.00	 2104.93	-1855.78	  400.32
    101.8700	 2055.00	 2077.94	-1966.79	  400.23
    101.9700	 2029.00	 2034.55	-1949.40	  400.15
    102.0700	 1984.00	 1976.83	-1936.68	  400.07
    102.1700	 1989.00	 1907.93	-1862.78	  399.99
    102.2700	 1938.00	 1831.78	-1837.63	  399.91
    102.3700	 1792.00	 1752.50	-1904.35	  399.83
    102.4700	 1640.00	 1673.97	-1977.82	  399.76
    102.5700	 1639.00	 1599.37	-1904.22	  399.68
    102.6700	 1601.00	 1531.09	-1873.94	  399.61
    102.7700	 1523.00	 1470.66	-1891.51	  399.54
    102.8700	 1425.00	 1418.75	-1937.60	  399.47
    102.9700	 1375.00	 1375.31	-1944.16	  399.40
    103.0700	 1428.00	 1339.53	-1855.38	  399.33
    103.1700	 1347.00	 1310.06	-1906.91	  399.26
    103.2700	 1300.00	 1285.08	-1928.93	  399.20
    103.3700	 1238.00	 1262.44	-1968.29	  399.13
    103.4700	 1313.00	 1239.94	-1870.79	  399.07
    103.5700	 1198.00	 1215.60	-1961.45	  399.01
    103.6700	 1174.00	 1187.95	-1957.80	  398.95
    103.7700	 1118.00	 1156.24	-1982.09	  398.90
    103.8700	 1128.00	 1120.45	-1936.31	  398.84
    103.9700	 1041.00	 1081.18	-1984.03	  398.79
    104.0700	 1051.00	 1039.37	-1932.22	  398.73
    104.1700	 1022.00	  996.14	-1917.99	  398.68
    104.2700	  910.00	  952.61	-1986.46	  398.63
    104.3700	  918.00	  909.83	-1935.68	  398.59
    104.4700	  883.00	  868.70	-1929.55	  398.54
    104.5700	  888.00	  829.97	-1885.82	  398.50
    104.6700	  764.00	  794.20	-1974.05	  398.45
    104.7700	  834.00	  761.78	-1871.63	  398.41
    104.8700	  747.00	  732.93	-1929.79	  398.37
    104.9700	  694.00	  707.66	-1957.51	  398.34
    105.0700	  687.00	  686.02	-1942.87	  398.30
    105.1700	  684.00	  667.75	-1927.60	  398.26
    105.2700	  718.00	  652.60	-1878.45	  398.23
    105.3700	  694.00	  640.25	-1890.10	  398.20
    105.4700	  697.00	  630.38	-1877.23	  398.17
    105.5700	  630.00	  622.66	-1936.51	  398.14
    105.6700	  644.00	  616.79	-1916.64	  398.12
    105.7700	  629.00	  612.44	-1927.29	  398.09
    105.8700	  581.00	  609.49	-1972.34	  398.07
    105.9700	  663.00	  607.70	-1888.56	  398.05
    106.0700	  580.00	  606.96	-1970.82	  398.03
    106.1700	  637.00	  607.18	-1914.03	  398.01
    106.2700	  620.00	  608.31	-1932.17	  398.00
    106.3700	  602.00	  610.36	-1952.21	  397.98
    106.4700	  595.00	  613.33	-1962.18	  397.97
    106.5700	  605.00	  617.29	-1956.14	  397.96
    106.6700	  636.00	  622.29	-1930.15	  397.95
    106.7700	  588.00	  628.41	-1984.26	  397.95
    106.8700	  631.00	  635.71	-1948.56	  397.94
    106.9700	  690.00	  644.23	-1898.08	  397.94
    107.0700	  702.00	  653.99	-1895.84	  397.94
    107.1700	  686.00	  664.94	-1922.79	  397.94
    107.2700	  634.00	  677.00	-1986.85	  397.94
    107.3700	  699.00	  690.02	-1934.87	  397.95
    107.4700	  759.00	  703.77	-1888.63	  397.95
    107.5700	  685.00	  717.99	-1976.84	  397.96
    107.6700	  726.00	  732.32	-1950.17	  397.97
    107.7700	  705.00	  746.36	-1985.21	  397.98
    107.8700	  757.00	  759.67	-1946.52	  398.00
    107.9700	  739.00	  771.78	-1976.63	  398.02
    108.0700	  780.00	  782.24	-1946.09	  398.03
    108.1700	  704.00	  790.64	-2030.49	  398.05
    108.2700	  747.00	  796.78	-1993.63	  398.08
    108.3700	  729.00	  800.57	-2015.42	  398.10
    108.4700	  749.00	  802.14	-1996.99	  398.13
    108.5700	  789.00	  801.82	-1956.67	  398.15
    108.6700	  734.00	  800.06	-2009.91	  398.18
    108.7700	  753.00	  797.36	-1988.21	  398.22
    108.8700	  775.00	  794.24	-1963.09	  398.25
    108.9700	  743.00	  791.13	-1991.98	  398.29
    109.0700	  743.00	  788.42	-1989.27	  398.32
    109.1700	  760.00	  786.35	-1970.20	  398.36
    109.2700	  744.00	  785.06	-1984.91	  398.41
    109.3700	  684.00	  784.59	-2044.44	  398.45
    109.4700	  748.00	  784.82	-1980.67	  398.50
    109.5700	  782.00	  785.54	-1947.39	  398.55
    109.6700	  796.00	  786.44	-1934.30	  398.60
    109.7700	  729.00	  787.13	-2001.98	  398.65
    109.8700	  725.00	  787.15	-2006.00	  398.70
    109.9700	  786.00	  786.09	-1943.94	  398.76
    110.0700	  803.00	  783.58	-1924.43	  398.82
    110.1700	  806.00	  779.37	-1917.22	  398.88
    110.2700	  714.00	  773.39	-2003.24	  398.95
    110.3700	  725.00	  765.70	-1984.55	  399.01
    110.4700	  780.00	  756.50	-1920.36	  399.08
    110.5700	  720.00	  746.09	-1969.95	  399.15
    110.6700	  721.00	  734.81	-1957.66	  399.22
    110.7700	  732.00	  723.01	-1934.86	  399.30
    110.8700	  665.00	  711.02	-1989.87	  399.37
    110.9700	  682.00	  699.14	-1960.99	  399.45
    111.0700	  717.00	  687.64	-1914.49	  399.53
    111.1700	  664.00	  676.74	-1956.60	  399.62
    111.2700	  690.00	  666.63	-1920.48	  399.70
    111.3700	  643.00	  657.44	-1958.29	  399.79
    111.4700	  648.00	  649.26	-1945.11	  399.88
    111.5700	  644.00	  642.15	-1942.00	  399.97
    111.6700	  626.00	  636.12	-1953.97	  400.07
    111.7700	  614.00	  631.16	-1961.01	  400.16
    111.8700	  627.00	  627.23	-1944.08	  400.26
    111.9700	  599.00	  624.25	-1969.11	  400.36
    112.0700	  607.00	  622.16	-1959.02	  400.47
    112.1700	  628.00	  620.86	-1936.72	  400.57
    112.2700	  575.00	  620.26	-1989.11	  400.68
    112.3700	  619.00	  620.24	-1945.10	  400.79
    112.4700	  641.00	  620.73	-1923.58	  400.91
    112.5700	  573.00	  621.62	-1992.47	  401.02
    112.6700	  608.00	  622.82	-1958.67	  401.14
    112.7700	  574.00	  624.27	-1994.12	  401.26
    112.8700	  638.00	  625.90	-1931.75	  401.38
    112.9700	  598.00	  627.65	-1973.50	  401.51
    113.0700	  612.00	  629.50	-1961.36	  401.64
    113.1700	  638.00	  631.44	-1937.29	  401.77
    113.2700	  609.00	  633.46	-1968.31	  401.90
    113.3700	  633.00	  635.58	-1946.43	  402.04
    113.4700	  626.00	  637.85	-1955.70	  402.17
    113.5700	  534.00	  640.30	-2050.15	  402.31
    113.6700	  611.00	  643.00	-1975.85	  402.46
    113.7700	  581.00	  646.01	-2008.87	  402.60
    113.8700	  613.00	  649.42	-1980.27	  402.75
    113.9700	  640.00	  653.34	-1957.20	  402.90
    114.0700	  612.00	  657.90	-1989.76	  403.05
    114.1700	  620.00	  663.27	-1987.12	  403.20
    114.2700	  642.00	  669.64	-1971.49	  403.36
    114.3700	  717.00	  677.29	-1904.15	  403.52
    114.4700	  698.00	  686.58	-1932.43	  403.68
    114.5700	  675.00	  697.93	-1966.79	  403.85
    114.6700	  744.00	  711.93	-1911.78	  404.02
    114.7700	  716.00	  729.27	-1957.12	  404.19
    114.8700	  763.00	  750.84	-1931.70	  404.36
    114.9700	  758.00	  777.73	-1963.58	  404.54
    115.0700	  857.00	  811.23	-1898.09	  404.71
    115.1700	  913.00	  852.90	-1883.76	  404.89
    115.2700	  931.00	  904.56	-1917.41	  405.08
    115.3700	 1010.00	  968.26	-1902.11	  405.26
    115.4700	 1137.00	 1046.30	-1853.15	  405.45
    115.5700	 1258.00	 1141.20	-1827.05	  405.64
    115.6700	 1335.00	 1255.62	-1864.47	  405.84
    115.7700	 1527.00	 1392.31	-1809.16	  406.03
    115.8700	 1734.00	 1553.94	-1763.79	  406.23
    115.9700	 1943.00	 1743.03	-1743.88	  406.43
    116.0700	 2265.00	 1961.70	-1640.55	  406.64
    116.1700	 2434.00	 2211.63	-1721.48	  406.84
    116.2700	 2732.00	 2493.81	-1705.66	  407.05
    116.3700	 3089.00	 2808.26	-1663.11	  407.27
    116.4700	 3442.00	 3153.97	-1655.83	  407.48
    116.5700	 3644.00	 3528.66	-1828.52	  407.70
    116.6700	 4077.00	 3928.83	-1795.68	  407.92
    116.7700	 4369.00	 4349.54	-1924.39	  408.14
    116.8700	 4797.00	 4784.43	-1931.28	  408.37
    116.9700	 5164.00	 5225.69	-2005.54	  408.60
    117.0700	 5496.00	 5664.22	-2112.07	  408.83
    117.1700	 5981.00	 6089.88	-2052.73	  409.06
    117.2700	 6255.00	 6491.63	-2180.48	  409.30
    117.3700	 6541.00	 6857.71	-2260.56	  409.54
    117.4700	 6937.00	 7176.33	-2183.18	  409.78
    117.5700	 7218.00	 7436.15	-2162.00	  410.03
    117.6700	 7476.00	 7627.27	-2095.13	  410.28
    117.7700	 7412.00	 7741.94	-2273.80	  410.53
    117.8700	 7605.00	 7775.41	-2114.26	  410.78
    117.9700	 7392.00	 7726.55	-2278.40	  411.04
    118.0700	 7268.00	 7598.02	-2273.87	  411.30
    118.1700	 7191.00	 7395.84	-2148.69	  411.56
    118.2700	 6875.00	 7128.68	-2197.53	  411.83
    118.3700	 6691.00	 6807.08	-2059.93	  412.10
    118.4700	 6350.00	 6442.51	-2036.36	  412.37
    118.5700	 5935.00	 6046.68	-2055.54	  412.64
    118.6700	 5636.00	 5630.88	-1938.73	  412.92
    118.7700	 5247.00	 5205.58	-1902.43	  413.20
    118.8700	 4916.00	 4780.37	-1808.22	  413.48
    118.9700	 4645.00	 4363.55	-1662.40	  413.77
    119.0700	 4179.00	 3962.13	-1726.98	  414.05
    119.1700	 3747.00	 3581.59	-1778.44	  414.35
    119.2700	 3419.00	 3226.03	-1750.89	  414.64
    119.3700	 3102.00	 2898.33	-1740.18	  414.94
    119.4700	 2861.00	 2600.08	-1682.93	  415.24
    119.5700	 2568.00	 2331.84	-1707.69	  415.54
    119.6700	 2320.00	 2093.18	-1717.04	  415.85
    119.7700	 1974.00	 1882.97	-1852.82	  416.16
    119.8700	 1929.00	 1699.56	-1714.42	  416.47
    119.9700	 1712.00	 1540.92	-1772.78	  416.78
    120.0700	 1605.00	 1404.77	-1743.62	  417.10
    120.1700	 1386.00	 1288.67	-1846.53	  417.42
    120.2700	 1401.00	 1190.22	-1733.07	  417.75
    120.3700	 1231.00	 1107.09	-1819.95	  418.08
    120.4700	 1186.00	 1037.14	-1794.99	  418.41
    120.5700	 1093.00	  978.39	-1829.24	  418.74
    120.6700	 1005.00	  929.08	-1867.93	  419.08
    120.7700	  949.00	  887.67	-1882.53	  419.42
    120.8700	  912.00	  852.88	-1884.73	  419.76
    120.9700	  882.00	  823.60	-1885.45	  420.10
    121.0700	  847.00	  798.92	-1895.78	  420.45
    121.1700	  755.00	  778.11	-1966.96	  420.80
    121.2700	  785.00	  760.55	-1919.40	  421.16
    121.3700	  709.00	  745.76	-1980.61	  421.52
    121.4700	  721.00	  733.35	-1956.20	  421.88
    121.5700	  760.00	  723.01	-1906.86	  422.24
    121.6700	  692.00	  714.49	-1966.35	  422.61
    121.7700	  664.00	  707.60	-1987.45	  422.98
    121.8700	  704.00	  702.17	-1942.02	  423.35
    121.9700	  670.00	  698.08	-1971.94	  423.73
    122.0700	  674.00	  695.23	-1965.08	  424.11
    122.1700	  656.00	  693.52	-1981.37	  424.49
    122.2700	  677.00	  692.89	-1959.74	  424.88
    122.3700	  665.00	  693.27	-1972.12	  425.27
    122.4700	  679.00	  694.60	-1959.45	  425.66
    122.5700	  691.00	  696.84	-1949.69	  426.06
    122.6700	  696.00	  699.92	-1947.77	  426.46
    122.7700	  703.00	  703.78	-1944.63	  426.86
    122.8700	  724.00	  708.37	-1928.22	  427.26
    122.9700	  688.00	  713.62	-1969.47	  427.67
    123.0700	  711.00	  719.44	-1952.29	  428.08
    123.1700	  711.00	  725.76	-1958.61	  428.50
    123.2700	  716.00	  732.48	-1960.33	  428.92
    123.3700	  699.00	  739.50	-1984.35	  429.34
    123.4700	  725.00	  746.71	-1965.56	  429.76
    123.5700	  735.00	  754.00	-1962.85	  430.19
    123.6700	  796.00	  761.23	-1909.08	  430.62
    123.7700	  753.00	  768.30	-1959.15	  431.06
    123.8700	  727.00	  775.07	-1991.92	  431.50
    123.9700	  756.00	  781.43	-1969.28	  431.94
    124.0700	  741.00	  787.29	-1990.14	  432.38
    124.1700	  751.00	  792.57	-1985.42	  432.83
    124.2700	  784.00	  797.21	-1957.06	  433.28
    124.3700	  774.00	  801.18	-1971.03	  433.73
    124.4700	  759.00	  804.53	-1989.38	  434.19
    124.5700	  739.00	  807.27	-2012.12	  434.65
    124.6700	  764.00	  809.45	-1989.30	  435.12
    124.7700	  784.00	  811.13	-1970.98	  435.58
    124.8700	  750.00	  812.37	-2006.22	  436.06
    124.9700	  795.00	  569.18	-1718.03	  436.53
    125.0700	  745.00	  569.65	-1943.85	  437.01
    125.1700	  753.00	  570.13	-1943.85	  437.49
    125.2700	  732.00	  570.62	-1943.85	  437.97
    125.3700	  836.00	  571.11	-1943.85	  438.46
    125.4700	  722.00	  571.60	-1943.85	  438.95
    125.5700	  717.00	  572.09	-1943.85	  439.45
    125.6700	  782.00	  572.59	-1943.85	  439.94
    125.7700	  763.00	  573.09	-1943.85	  440.45
    125.8700	  797.00	  573.60	-1943.85	  440.95
    125.9700	  816.00	  574.10	-1943.85	  441.46
    126.0700	  789.00	  574.62	-1943.85	  441.97
    126.1700	  742.00	  575.13	-1943.85	  442.48
    126.2700	  787.00	  575.65	-1943.85	  443.00
    126.3700	  736.00	  576.17	-1943.85	  443.52
    126.4700	  707.00	  576.70	-1943.85	  444.05
    126.5700	  676.00	  577.22	-1943.85	  444.58
    126.6700	  699.00	  577.76	-1943.85	  445.11
    126.7700	  716.00	  578.29	-1943.85	  445.65
    126.8700	  713.00	  578.83	-1943.85	  446.19
    126.9700	  675.00	  579.37	-1943.85	  446.73
    127.0700	  725.00	  579.92	-1943.85	  447.27
    127.1700	  659.00	  580.47	-1943.85	  447.82
    127.2700	  605.00	  581.02	-1943.85	  448.38
    127.3700	  649.00	  581.58	-1943.85	  448.93
    127.4700	  651.00	  582.14	-1943.85	  449.49
    127.5700	  625.00	  582.70	-1943.85	  450.06
    127.6700	  654.00	  583.27	-1943.85	  450.62
    127.7700	  638.00	  583.84	-1943.85	  451.19
    127.8700	  632.00	  584.41	-1943.85	  451.77
    127.9700	  654.00	  584.99	-1943.85	  452.34
    128.0700	  651.00	  585.57	-1943.85	  452.93
    128.1700	  644.00	  586.16	-1943.85	  453.51
    128.2700	  624.00	  586.74	-1943.85	  454.10
    128.3700	  667.00	  587.34	-1943.85	  454.69
    128.4700	  675.00	  587.93	-1943.85	  455.29
    128.5700	    0.00	  588.53	-1943.85	  455.88
    128.6700	    0.00	  589.13	-1943.85	  456.49
     12.4273	        	        	        	        	       0	(  0  0  2)	  0  1
     12.4273	        	        	        	        	    -485	(  0  0  2)	  0  1
     25.0961	        	        	        	        	       0	(  0  0  4)	  0  1
     25.0961	        	        	        	        	    -485	(  0  0  4)	  0  1
     28.5489	        	        	        	        	       0	(  1  0  0)	  0  1
     28.5489	        	        	        	        	    -485	(  1  0  0)	  0  1
     29.2513	        	        	        	        	       0	(  1  0  1)	  0  1
     29.2513	        	        	        	        	    -485	(  1  0  1)	  0  1
     31.2725	        	        	        	        	       0	(  1  0  2)	  0  1
     31.2725	        	        	        	        	    -485	(  1  0  2)	  0  1
     34.4042	        	        	        	        	       0	(  1  0  3)	  0  1
     34.4042	        	        	        	        	    -485	(  1  0  3)	  0  1
     38.0876	        	        	        	        	       0	(  0  0  6)	  0  1
     38.0876	        	        	        	        	    -485	(  0  0  6)	  0  1
     38.4114	        	        	        	        	       0	(  1  0  4)	  0  1
     38.4114	        	        	        	        	    -485	(  1  0  4)	  0  1
     43.0974	        	        	        	        	       0	(  1  0  5)	  0  1
     43.0974	        	        	        	        	    -485	(  1  0  5)	  0  1
     48.3226	        	        	        	        	       0	(  1  0  6)	  0  1
     48.3226	        	        	        	        	    -485	(  1  0  6)	  0  1
     50.6393	        	        	        	        	       0	(  1  1  0)	  0  1
     50.6393	        	        	        	        	    -485	(  1  1  0)	  0  1
     51.6132	        	        	        	        	       0	(  0  0  8)	  0  1
     51.6132	        	        	        	        	    -485	(  0  0  8)	  0  1
     52.3770	        	        	        	        	       0	(  1  1  2)	  0  1
     52.3770	        	        	        	        	    -485	(  1  1  2)	  0  1
     53.9994	        	        	        	        	       0	(  1  0  7)	  0  1
     53.9994	        	        	        	        	    -485	(  1  0  7)	  0  1
     57.3678	        	        	        	        	       0	(  1  1  4)	  0  1
     57.3678	        	        	        	        	    -485	(  1  1  4)	  0  1
     59.2029	        	        	        	        	       0	(  2  0  0)	  0  1
     59.2029	        	        	        	        	    -485	(  2  0  0)	  0  1
     59.5981	        	        	        	        	       0	(  2  0  1)	  0  1
     59.5981	        	        	        	        	    -485	(  2  0  1)	  0  1
     60.0819	        	        	        	        	       0	(  1  0  8)	  0  1
     60.0819	        	        	        	        	    -485	(  1  0  8)	  0  1
     60.7741	        	        	        	        	       0	(  2  0  2)	  0  1
     60.7741	        	        	        	        	    -485	(  2  0  2)	  0  1
     62.7050	        	        	        	        	       0	(  2  0  3)	  0  1
     62.7050	        	        	        	        	    -485	(  2  0  3)	  0  1
     65.1328	        	        	        	        	       0	(  1  1  6)	  0  1
     65.1328	        	        	        	        	    -485	(  1  1  6)	  0  1
     65.3538	        	        	        	        	       0	(  2  0  4)	  0  1
     65.3538	        	        	        	        	    -485	(  2  0  4)	  0  1
     65.9661	        	        	        	        	       0	(  0  0 10)	  0  1
     65.9661	        	        	        	        	    -485	(  0  0 10)	  0  1
     66.5570	        	        	        	        	       0	(  1  0  9)	  0  1
     66.5570	        	        	        	        	    -485	(  1  0  9)	  0  1
     68.6800	        	        	        	        	       0	(  2  0  5)	  0  1
     68.6800	        	        	        	        	    -485	(  2  0  5)	  0  1
     72.6471	        	        	        	        	       0	(  2  0  6)	  0  1
     72.6471	        	        	        	        	    -485	(  2  0  6)	  0  1
     73.4403	        	        	        	        	       0	(  1  0 10)	  0  1
     73.4403	        	        	        	        	    -485	(  1  0 10)	  0  1
     75.2709	        	        	        	        	       0	(  1  1  8)	  0  1
     75.2709	        	        	        	        	    -485	(  1  1  8)	  0  1
     77.2293	        	        	        	        	       0	(  2  0  7)	  0  1
     77.2293	        	        	        	        	    -485	(  2  0  7)	  0  1
     80.7764	        	        	        	        	       0	(  1  0 11)	  0  1
     80.7764	        	        	        	        	    -485	(  1  0 11)	  0  1
     81.6064	        	        	        	        	       0	(  0  0 12)	  0  1
     81.6064	        	        	        	        	    -485	(  0  0 12)	  0  1
     81.6512	        	        	        	        	       0	(  2  1  0)	  0  1
     81.6512	        	        	        	        	    -485	(  2  1  0)	  0  1
     81.9951	        	        	        	        	       0	(  2  1  1)	  0  1
     81.9951	        	        	        	        	    -485	(  2  1  1)	  0  1
     82.4176	        	        	        	        	       0	(  2  0  8)	  0  1
     82.4176	        	        	        	        	    -485	(  2  0  8)	  0  1
     83.0249	        	        	        	        	       0	(  2  1  2)	  0  1
     83.0249	        	        	        	        	    -485	(  2  1  2)	  0  1
     84.7366	        	        	        	        	       0	(  2  1  3)	  0  1
     84.7366	        	        	        	        	    -485	(  2  1  3)	  0  1
     87.1254	        	        	        	        	       0	(  2  1  4)	  0  1
     87.1254	        	        	        	        	    -485	(  2  1  4)	  0  1
     87.6842	        	        	        	        	       0	(  1  1 10)	  0  1
     87.6842	        	        	        	        	    -485	(  1  1 10)	  0  1
     88.2258	        	        	        	        	       0	(  2  0  9)	  0  1
     88.2258	        	        	        	        	    -485	(  2  0  9)	  0  1
     88.6446	        	        	        	        	       0	(  1  0 12)	  0  1
     88.6446	        	        	        	        	    -485	(  1  0 12)	  0  1
     90.1903	        	        	        	        	       0	(  2  1  5)	  0  1
     90.1903	        	        	        	        	    -485	(  2  1  5)	  0  1
     93.9382	        	        	        	        	       0	(  2  1  6)	  0  1
     93.9382	        	        	        	        	    -485	(  2  1  6)	  0  1
     94.6995	        	        	        	        	       0	(  2  0 10)	  0  1
     94.6995	        	        	        	        	    -485	(  2  0 10)	  0  1
     95.7082	        	        	        	        	       0	(  3  0  0)	  0  1
     95.7082	        	        	        	        	    -485	(  3  0  0)	  0  1
     96.0505	        	        	        	        	       0	(  3  0  1)	  0  1
     96.0505	        	        	        	        	    -485	(  3  0  1)	  0  1
     97.0787	        	        	        	        	       0	(  3  0  2)	  0  1
     97.0787	        	        	        	        	    -485	(  3  0  2)	  0  1
     97.1746	        	        	        	        	       0	(  1  0 13)	  0  1
     97.1746	        	        	        	        	    -485	(  1  0 13)	  0  1
     98.3913	        	        	        	        	       0	(  2  1  7)	  0  1
     98.3913	        	        	        	        	    -485	(  2  1  7)	  0  1
     98.7977	        	        	        	        	       0	(  3  0  3)	  0  1
     98.7977	        	        	        	        	    -485	(  3  0  3)	  0  1
     99.3803	        	        	        	        	       0	(  0  0 14)	  0  1
     99.3803	        	        	        	        	    -485	(  0  0 14)	  0  1
    101.2183	        	        	        	        	       0	(  3  0  4)	  0  1
    101.2183	        	        	        	        	    -485	(  3  0  4)	  0  1
    101.9307	        	        	        	        	       0	(  2  0 11)	  0  1
    101.9307	        	        	        	        	    -485	(  2  0 11)	  0  1
    102.7709	        	        	        	        	       0	(  1  1 12)	  0  1
    102.7709	        	        	        	        	    -485	(  1  1 12)	  0  1
    103.5964	        	        	        	        	       0	(  2  1  8)	  0  1
    103.5964	        	        	        	        	    -485	(  2  1  8)	  0  1
    104.3615	        	        	        	        	       0	(  3  0  5)	  0  1
    104.3615	        	        	        	        	    -485	(  3  0  5)	  0  1
    106.5806	        	        	        	        	       0	(  1  0 14)	  0  1
    106.5806	        	        	        	        	    -485	(  1  0 14)	  0  1
    108.2657	        	        	        	        	       0	(  3  0  6)	  0  1
    108.2657	        	        	        	        	    -485	(  3  0  6)	  0  1
    109.6414	        	        	        	        	       0	(  2  1  9)	  0  1
    109.6414	        	        	        	        	    -485	(  2  1  9)	  0  1
    110.0868	        	        	        	        	       0	(  2  0 12)	  0  1
    110.0868	        	        	        	        	    -485	(  2  0 12)	  0  1
    112.9986	        	        	        	        	       0	(  3  0  7)	  0  1
    112.9986	        	        	        	        	    -485	(  3  0  7)	  0  1
    116.6856	        	        	        	        	       0	(  2  1 10)	  0  1
    116.6856	        	        	        	        	    -485	(  2  1 10)	  0  1
    117.2435	        	        	        	        	       0	(  1  0 15)	  0  1
    117.2435	        	        	        	        	    -485	(  1  0 15)	  0  1
    117.8162	        	        	        	        	       0	(  2  2  0)	  0  1
    117.8162	        	        	        	        	    -485	(  2  2  0)	  0  1
    118.6787	        	        	        	        	       0	(  3  0  8)	  0  1
    118.6787	        	        	        	        	    -485	(  3  0  8)	  0  1
    119.3684	        	        	        	        	       0	(  2  2  2)	  0  1
    119.3684	        	        	        	        	    -485	(  2  2  2)	  0  1
    119.4778	        	        	        	        	       0	(  2  0 13)	  0  1
    119.4778	        	        	        	        	    -485	(  2  0 13)	  0  1
    121.3106	        	        	        	        	       0	(  0  0 16)	  0  1
    121.3106	        	        	        	        	    -485	(  0  0 16)	  0  1
    122.0193	        	        	        	        	       0	(  1  1 14)	  0  1
    122.0193	        	        	        	        	    -485	(  1  1 14)	  0  1
    124.1796	        	        	        	        	       0	(  2  2  4)	  0  1
    124.1796	        	        	        	        	    -485	(  2  2  4)	  0  1
    125.0283	        	        	        	        	       0	(  2  1 11)	  0  1
    125.0283	        	        	        	        	    -485	(  2  1 11)	  0  1
    125.5209	        	        	        	        	       0	(  3  0  9)	  0  1
    125.5209	        	        	        	        	    -485	(  3  0  9)	  0  1
    126.0925	        	        	        	        	       0	(  3  1  0)	  0  1
    126.0925	        	        	        	        	    -485	(  3  1  0)	  0  1
    126.5154	        	        	        	        	       0	(  3  1  1)	  0  1
    126.5154	        	        	        	        	    -485	(  3  1  1)	  0  1
    127.7983	        	        	        	        	       0	(  3  1  2)	  0  1
    127.7983	        	        	        	        	    -485	(  3  1  2)	  0  1
    129.9522	        	        	        	        	       0	(  1  0 16)	  0  1
    129.9522	        	        	        	        	    -485	(  1  0 16)	  0  1
    129.9881	        	        	        	        	       0	(  3  1  3)	  0  1
    129.9881	        	        	        	        	    -485	(  3  1  3)	  0  1
    130.7440	        	        	        	        	       0	(  2  0 14)	  0  1
    130.7440	        	        	        	        	    -485	(  2  0 14)	  0  1
    132.9035	        	        	        	        	       0	(  2  2  6)	  0  1
    132.9035	        	        	        	        	    -485	(  2  2  6)	  0  1
    133.1787	        	        	        	        	       0	(  3  1  4)	  0  1
    133.1787	        	        	        	        	    -485	(  3  1  4)	  0  1
    133.9502	        	        	        	        	       0	(  3  0 10)	  0  1
    133.9502	        	        	        	        	    -485	(  3  0 10)	  0  1
    135.3011	        	        	        	        	       0	(  2  1 12)	  0  1
    135.3011	        	        	        	        	    -485	(  2  1 12)	  0  1
    137.5472	        	        	        	        	       0	(  3  1  5)	  0  1
    137.5472	        	        	        	        	    -485	(  3  1  5)	  0  1
    143.4476	        	        	        	        	       0	(  3  1  6)	  0  1
    143.4476	        	        	        	        	    -485	(  3  1  6)	  0  1
    144.9878	        	        	        	        	       0	(  3  0 11)	  0  1
    144.9878	        	        	        	        	    -485	(  3  0 11)	  0  1
    145.6170	        	        	        	        	       0	(  2  0 15)	  0  1
    145.6170	        	        	        	        	    -485	(  2  0 15)	  0  1
    146.9884	        	        	        	        	       0	(  1  0 17)	  0  1
    146.9884	        	        	        	        	    -485	(  1  0 17)	  0  1
    147.9342	        	        	        	        	       0	(  2  2  8)	  0  1
    147.9342	        	        	        	        	    -485	(  2  2  8)	  0  1
    149.2771	        	        	        	        	       0	(  2  1 13)	  0  1
    149.2771	        	        	        	        	    -485	(  2  1 13)	  0  1
    151.7318	        	        	        	        	       0	(  3  1  7)	  0  1
    151.7318	        	        	        	        	    -485	(  3  1  7)	  0  1
    152.5349	        	        	        	        	       0	(  1  1 16)	  0  1
    152.5349	        	        	        	        	    -485	(  1  1 16)	  0  1
    157.5827	        	        	        	        	       0	(  0  0 18)	  0  1
    157.5827	        	        	        	        	    -485	(  0  0 18)	  0  1
    162.9638	        	        	        	        	       0	(  3  0 12)	  0  1
    162.9638	        	        	        	        	    -485	(  3  0 12)	  0  1
    163.1167	        	        	        	        	       0	(  4  0  0)	  0  1
    163.1167	        	        	        	        	    -485	(  4  0  0)	  0  1
    164.3381	        	        	        	        	       0	(  4  0  1)	  0  1
    164.3381	        	        	        	        	    -485	(  4  0  1)	  0  1
    165.9825	        	        	        	        	       0	(  3  1  8)	  0  1
    165.9825	        	        	        	        	    -485	(  3  1  8)	  0  1
    168.7581	        	        	        	        	       0	(  4  0  2)	  0  1
    168.7581	        	        	        	        	    -485	(  4  0  2)	  0  1
